eeg1,eeg2,eeg3,eeg4,eeg5,eeg6,eeg7,eeg8,accx,accy,accz,iso_utc,session_id,command_name
0.0,0.0,0.0,0.0,0.0,0.0,0.0,0.0,0.0,0.0,0.0,2019-03-17T21:24:16.943938,10,EyesOpen
-17311.359025401955,-9423.987200735475,4315.9653921086065,-2576.0832519630494,27329.477945503946,7740.073828706006,11789.494668185076,10961.429591349315,0.052000000000000005,1.008,0.23,2019-03-17T21:24:16.965753,10,EyesOpen
-17243.74499842465,-9342.760961384889,4457.116658343871,-2384.014711858596,27437.347464245257,7920.787682627164,11890.703367078706,11123.636200861478,0.0,0.0,0.0,2019-03-17T21:24:16.966256,10,EyesOpen
-17399.268436344675,-9518.512728036969,4402.1313669838155,-2318.524100604546,27311.88712261762,8363.195760631057,11778.117630257324,11151.486474452791,0.0,0.0,0.0,2019-03-17T21:24:16.972605,10,EyesOpen
-17491.13410605599,-9611.048950081939,4256.241530924026,-2495.9298963463184,27188.684307179967,8243.703334772985,11664.660175402187,10996.432423166327,0.0,0.0,0.0,2019-03-17T21:24:16.973007,10,EyesOpen
-17349.133473531423,-9457.06778252933,4292.205487752615,-2578.139612452938,27300.375974223134,7786.677215895322,11769.288691197478,10953.226501134217,0.0,0.0,0.0,2019-03-17T21:24:16.980586,10,EyesOpen
-17231.228021529678,-9342.425685218059,4435.837797622418,-2410.702694738233,27432.206563020536,7844.434123567835,11892.78207931305,11100.502145350236,0.0,0.0,0.0,2019-03-17T21:24:16.980962,10,EyesOpen
-17352.75445613318,-9475.26210251595,4424.527814928033,-2296.015893938052,27347.35934106819,8312.412597228598,11816.428520253721,11172.20654156286,0.0,0.0,0.0,2019-03-17T21:24:16.987724,10,EyesOpen
-17480.069992550612,-9608.389092491758,4277.922723045674,-2443.1350759428833,27208.309138811725,8319.878079876671,11687.704823935608,11036.486749230236,0.044,1.014,0.23,2019-03-17T21:24:16.988242,10,EyesOpen
-17370.47938948624,-9489.969550367541,4266.165705462183,-2582.8558305330075,27274.69381984399,7847.585719536033,11746.46756010861,10942.587070773492,0.0,0.0,0.0,2019-03-17T21:24:16.995236,10,EyesOpen
-17225.72949239367,-9328.791121100321,4424.1478352722925,-2438.5529683295454,27435.04523456636,7794.433271221313,11898.191201471234,11076.943406694343,0.0,0.0,0.0,2019-03-17T21:24:16.995629,10,EyesOpen
-17321.2384964512,-9434.313706673825,4445.538454716022,-2296.2394113826053,27381.781027529363,8248.218387152958,11851.63251777083,11172.474762496324,0.0,0.0,0.0,2019-03-17T21:24:17.003364,10,EyesOpen
-17475.93491982638,-9601.124775543783,4298.642790155744,-2414.7930639735537,27219.708528483934,8371.220036890512,11699.908876408206,11053.004688382709,0.0,0.0,0.0,2019-03-17T21:24:17.003758,10,EyesOpen
-17393.121706619466,-9509.63908548821,4260.331900159347,-2568.640121059432,27260.54516560378,7937.640897946465,11738.08565593787,10941.40242831736,0.0,0.0,0.0,2019-03-17T21:24:17.011297,10,EyesOpen
-17226.73532089416,-9327.427664688548,4404.813576318452,-2467.587884376989,27429.747871130454,7758.692831837277,11895.330178180955,11042.678182444357,0.0,0.0,0.0,2019-03-17T21:24:17.011674,10,EyesOpen
-17274.746867984162,-9380.446002536537,4471.377071306357,-2285.4882222996025,27422.505905926933,8184.292398010779,11896.134840981345,11178.017995121241,0.0,0.0,0.0,2019-03-17T21:24:17.017493,10,EyesOpen
-17446.92235552339,-9564.020879747974,4343.703906977643,-2355.270368489071,27254.800767278764,8422.182014248612,11744.634717063274,11096.836459259566,0.0,0.0,0.0,2019-03-17T21:24:17.017877,10,EyesOpen
-17436.84171877405,-9550.69924005261,4244.46216159608,-2561.2193419002706,27220.647301751054,8014.642657594998,11711.867059691795,10934.607498002946,0.0,0.0,0.0,2019-03-17T21:24:17.024963,10,EyesOpen
-17254.160911340823,-9361.871702894176,4366.167410155226,-2512.358428520969,27390.252338677925,7721.968915697207,11866.317613877967,10997.572362133547,0.038,1.01,0.222,2019-03-17T21:24:17.032875,10,EyesOpen
-17257.826597431493,-9381.340072314748,4458.725983944653,-2322.3462489064036,27424.651673394645,8065.9846146088385,11900.1581549833,11145.54091042768,0.0,0.0,0.0,2019-03-17T21:24:17.033329,10,EyesOpen
-17433.824233272582,-9564.445562892624,4349.560064024933,-2344.586234639434,27263.629706338612,8395.47167962452,11752.413124133722,11098.848116260544,0.0,0.0,0.0,2019-03-17T21:24:17.040052,10,EyesOpen
-17461.36158244152,-9583.332786957359,4234.113303913272,-2542.555635280089,27199.43549626297,8087.531696263754,11692.398690271222,10934.898070680865,0.0,0.0,0.0,2019-03-17T21:24:17.040557,10,EyesOpen
-17296.27159789462,-9398.305046356327,4321.486272989067,-2548.143571393916,27346.21940210097,7707.172060867794,11829.705456460173,10951.281899366606,0.0,0.0,0.0,2019-03-17T21:24:17.047520,10,EyesOpen
-17245.89076589236,-9354.875606879665,4452.646309452809,-2344.899159061809,27433.94999908805,7978.611645533043,11914.329160967965,11120.082273493084,0.0,0.0,0.0,2019-03-17T21:24:17.047841,10,EyesOpen
-17413.104166162513,-9534.337763111325,4379.0643667059385,-2314.8360627694206,27296.285604987814,8392.633008078696,11786.924217572716,11121.021046760208,0.0,0.0,0.0,2019-03-17T21:24:17.055589,10,EyesOpen
-17468.69295462286,-9592.832278350865,4250.944167488118,-2501.428425482324,27203.637624220566,8192.204915547958,11698.388957785244,10963.038916950098,0.0,0.0,0.0,2019-03-17T21:24:17.056089,10,EyesOpen
-17302.84301076448,-9423.29429665736,4310.668028672699,-2558.850056988008,27333.478907761444,7752.300232923059,11818.618991210342,10943.659954507346,0.0,0.0,0.0,2019-03-17T21:24:17.063532,10,EyesOpen
-17226.958838338716,-9343.364458485183,4444.934957615728,-2383.388863013847,27442.644827681164,7898.346531194035,11919.492413937141,11097.90934299342,0.0,0.0,0.0,2019-03-17T21:24:17.063926,10,EyesOpen
-17379.53184599064,-9506.331027308826,4399.627971604821,-2310.41041736727,27328.852096659197,8350.455266291532,11816.607334209364,11139.058904535641,0.03,1.008,0.224,2019-03-17T21:24:17.070676,10,EyesOpen
-17481.545207684663,-9617.329790273881,4256.666214068677,-2483.5470299180784,27198.56377822921,8259.260148913878,11699.305379307913,10984.65305383838,0.0,0.0,0.0,2019-03-17T21:24:17.071124,10,EyesOpen
-17350.85455785448,-9473.049279814873,4272.066565998383,-2592.064749248594,27291.278814229827,7782.072756537528,11786.030147794503,10920.078864106998,0.0,0.0,0.0,2019-03-17T21:24:17.078127,10,EyesOpen
-17222.44378595874,-9342.358629984694,4420.929184070728,-2432.6744595377995,27436.408690978136,7808.648980694888,11917.793681358538,11065.633423999956,0.0,0.0,0.0,2019-03-17T21:24:17.078653,10,EyesOpen
-17343.90316532888,-9469.338890235293,4408.68042810922,-2325.989583252619,27346.37586431216,8266.233893183935,11837.953250164182,11134.007410288741,0.0,0.0,0.0,2019-03-17T21:24:17.085294,10,EyesOpen
-17489.860056622038,-9604.254019767526,4266.769202562476,-2461.9552447742517,27201.357746286125,8301.951980823515,11706.346178811335,11005.440176181815,0.0,0.0,0.0,2019-03-17T21:24:17.093057,10,EyesOpen
-17389.746593206717,-9517.618658258756,4248.418420364669,-2599.7761010856752,27261.394531893082,7831.73833271722,11761.957319016137,10910.981704113687,0.0,0.0,0.0,2019-03-17T21:24:17.093342,10,EyesOpen
-17224.32133249299,-9352.23810103394,4402.3101809394575,-2463.721032586221,27427.691510640565,7743.940680496774,11915.133823768358,11040.331249276549,0.0,0.0,0.0,2019-03-17T21:24:17.099796,10,EyesOpen
-17309.280313167612,-9436.705343330545,4436.620108678354,-2305.515385331558,27383.077428707773,8196.094119083182,11875.437125615732,11149.228948262806,0.0,0.0,0.0,2019-03-17T21:24:17.100447,10,EyesOpen
-17478.058335549635,-9609.529031458978,4292.5631156639,-2407.886374936864,27213.941778414464,8349.22592034649,11718.483176050566,11037.783150408644,0.0,0.0,0.0,2019-03-17T21:24:17.108002,10,EyesOpen
-17415.49580281923,-9540.573899814355,4238.3601353597805,-2573.646911817421,27228.96215068843,7917.457272703323,11734.285859380469,10910.959352369233,0.032,1.016,0.224,2019-03-17T21:24:17.108467,10,EyesOpen
-17234.513727964608,-9346.583109686746,4388.854430777363,-2472.8405443239863,27407.306719697324,7718.414988328814,11901.655721861807,11011.095167529007,0.0,0.0,0.0,2019-03-17T21:24:17.115738,10,EyesOpen
-17271.014126660124,-9388.537334029357,4460.759992690086,-2289.623295023834,27411.911179055118,8123.585060070165,11909.88116382136,11147.35140172856,0.0,0.0,0.0,2019-03-17T21:24:17.116089,10,EyesOpen
-17437.69108506335,-9564.646728592721,4337.1548458522375,-2345.949691051208,27247.20117416396,8393.23650517899,11755.408257890733,11073.56829328159,0.0,0.0,0.0,2019-03-17T21:24:17.122458,10,EyesOpen
-17431.410244871407,-9546.98885047303,4237.399010348202,-2545.2154928702707,27207.839752178166,8016.140224473504,11714.236344604058,10912.412215758826,0.0,0.0,0.0,2019-03-17T21:24:17.122885,10,EyesOpen
-17252.909213651325,-9354.47327547947,4351.527017537001,-2512.425483754335,27372.214480902494,7701.539421265057,11866.16115166678,10960.490818082193,0.0,0.0,0.0,2019-03-17T21:24:17.131860,10,EyesOpen
-17240.50399547863,-9352.260452778393,4458.703632200198,-2323.9779262516413,27421.768298359908,8035.295669471702,11917.279591236067,11116.282476935683,0.0,0.0,0.0,2019-03-17T21:24:17.132253,10,EyesOpen
-17407.91856144888,-9537.064675934873,4361.00415718605,-2335.7125920906774,27267.317744173735,8394.018816234924,11778.609368635342,11089.952121967332,0.0,0.0,0.0,2019-03-17T21:24:17.138449,10,EyesOpen
-17452.30912593712,-9570.435830406646,4243.948071473607,-2537.5935480110106,27194.29459503825,8110.978676197372,11713.40933005921,10927.387884543883,0.0,0.0,0.0,2019-03-17T21:24:17.138877,10,EyesOpen
-17282.2794058656,-9385.85512469472,4330.337563793369,-2554.782039497142,27342.061977632282,7718.929078451286,11852.481884060131,10938.586108515992,0.0,0.0,0.0,2019-03-17T21:24:17.145602,10,EyesOpen
-17230.132786051367,-9339.810531116787,4454.725021687153,-2364.456935460202,27424.89754258365,7946.268671306214,11929.751864642129,11092.38846211296,0.03,1.012,0.226,2019-03-17T21:24:17.152001,10,EyesOpen
-17390.864180429482,-9515.227021602037,4392.788337801497,-2319.015838982563,27290.608261896166,8372.739955513473,11809.454775983666,11104.48075586328,0.0,0.0,0.0,2019-03-17T21:24:17.152468,10,EyesOpen
-17463.239128975765,-9595.738005130053,4256.88973151323,-2503.4400824833015,27186.7173536679,8202.419662764032,11712.828184703372,10949.851387721466,0.0,0.0,0.0,2019-03-17T21:24:17.159922,10,EyesOpen
-17305.72638579922,-9431.810311294832,4301.950848335129,-2572.037586216639,27304.06401205826,7749.908596266341,11818.596639465886,10918.916573395321,0.0,0.0,0.0,2019-03-17T21:24:17.160339,10,EyesOpen
-17210.373843952875,-9326.578298399247,4446.454876238689,-2390.85434566192,27425.456336195035,7869.93746399134,11928.321352996989,11075.62465377148,0.0,0.0,0.0,2019-03-17T21:24:17.168097,10,EyesOpen
-17358.431799224833,-9477.698442661576,4412.033189777517,-2302.5873068079122,27317.698576175997,8323.74493166744,11826.375046536334,11124.463215406326,0.0,0.0,0.0,2019-03-17T21:24:17.168672,10,EyesOpen
-17462.54622489765,-9587.177287003671,4271.217199709082,-2462.3352244299917,27188.66195543551,8270.100744974703,11703.440452032144,10983.289597426605,0.0,0.0,0.0,2019-03-17T21:24:17.175154,10,EyesOpen
-17326.37939767592,-9443.187349222582,4284.248266726526,-2572.886952505941,27279.611203624154,7800.043559079595,11786.633644894797,10921.06234086303,0.0,0.0,0.0,2019-03-17T21:24:17.175565,10,EyesOpen
-17198.4603641582,-9306.305266178282,4434.407285977279,-2419.9563169427297,27422.751775115943,7791.929875842318,11918.710102881207,11062.6606419874,0.0,0.0,0.0,2019-03-17T21:24:17.184045,10,EyesOpen
-17292.672967037317,-9412.967790719007,4449.293547784513,-2281.8448879533876,27357.28351560635,8257.360250635178,11855.007631183582,11156.180340788405,0.0,0.0,0.0,2019-03-17T21:24:17.184404,10,EyesOpen
-17436.03705597366,-9561.718650069077,4310.71273216161,-2408.109892381417,27203.883493409576,8320.593335699241,11712.112928880802,11033.290449773127,0.032,1.012,0.232,2019-03-17T21:24:17.192092,10,EyesOpen
-17353.983802078226,-9473.809239126354,4281.364891691791,-2561.6440250449214,27250.5315840878,7849.865597470474,11750.624984577296,10925.867965920921,0.0,0.0,0.0,2019-03-17T21:24:17.192427,10,EyesOpen
-17193.855904800406,-9310.932077280531,4431.434503964723,-2442.688041053777,27417.744984357952,7721.365418596914,11900.761652083595,11041.337077777038,0.0,0.0,0.0,2019-03-17T21:24:17.198680,10,EyesOpen
-17272.243472605165,-9392.918275942597,4476.473269042167,-2281.4872600421027,27389.961766000008,8157.291490708768,11876.934692494237,11163.824637392121,0.0,0.0,0.0,2019-03-17T21:24:17.199025,10,EyesOpen
-17435.54531759564,-9569.340594928337,4340.865235431818,-2373.956426853708,27227.799859976752,8340.866367920205,11727.021542432492,11071.780153725167,0.0,0.0,0.0,2019-03-17T21:24:17.204824,10,EyesOpen
-17381.431744269343,-9512.7459779675,4276.849839311819,-2551.4739813177566,27234.885362969086,7919.75950238222,11730.284897122967,10942.20709111775,0.0,0.0,0.0,2019-03-17T21:24:17.212270,10,EyesOpen
-17216.40881495581,-9328.433493189037,4403.092491995393,-2487.905620086863,27397.5166556259,7674.13618256285,11878.141686694824,11020.929935089343,0.0,0.0,0.0,2019-03-17T21:24:17.212761,10,EyesOpen
-17248.774140927093,-9359.480066237458,4494.444071584234,-2299.9721527066413,27419.08608902527,8066.878684387051,11897.364186926388,11172.407707262959,0.0,0.0,0.0,2019-03-17T21:24:17.220309,10,EyesOpen
-17423.788300012147,-9550.475722608056,4380.986616729095,-2342.7757433385545,27258.48880511389,8358.524246039897,11748.479217109587,11118.517651381213,0.0,0.0,0.0,2019-03-17T21:24:17.220751,10,EyesOpen
-17427.1634134249,-9552.59913833131,4275.955769533607,-2542.488580046723,27210.164333601515,8002.2374394223025,11702.725196209574,10963.441248350293,0.0,0.0,0.0,2019-03-17T21:24:17.228293,10,EyesOpen
-17250.763446183617,-9365.202112818017,4381.321892895924,-2518.616916968455,27367.341800611237,7671.588083694945,11849.240881114112,11008.927048316842,0.032,1.014,0.23600000000000002,2019-03-17T21:24:17.228583,10,EyesOpen
-17218.97926556817,-9336.569528170769,4497.707426274708,-2313.986696480119,27430.06079555283,7989.273427638224,11910.350550454921,11175.872227653532,0.0,0.0,0.0,2019-03-17T21:24:17.234893,10,EyesOpen
-17388.29372981712,-9514.623524501745,4410.535622899011,-2303.637838797312,27279.499444901878,8370.437725834576,11774.518999400021,11161.812980391143,0.0,0.0,0.0,2019-03-17T21:24:17.235341,10,EyesOpen
-17436.752311796226,-9557.471818622567,4283.734176604054,-2499.4391202258016,27195.05455434973,8113.07974017617,11694.231533316557,10999.494612156703,0.0,0.0,0.0,2019-03-17T21:24:17.242918,10,EyesOpen
-17270.65649874884,-9361.04468834933,4358.1654856402265,-2525.613012982966,27336.11641360717,7705.249810844638,11822.999933123581,11000.902772057387,0.0,0.0,0.0,2019-03-17T21:24:17.243189,10,EyesOpen
-17202.12605024887,-9287.865077002654,4497.729778019164,-2332.6727548447557,27435.17934503309,7915.400912213435,11914.865602834894,11161.365945502037,0.0,0.0,0.0,2019-03-17T21:24:17.250971,10,EyesOpen
-17366.210206295276,-9482.884047375208,4433.647326665799,-2287.4998793005802,27300.130105034128,8344.062667377313,11787.035976294992,11171.558340973657,0.0,0.0,0.0,2019-03-17T21:24:17.251336,10,EyesOpen
-17444.776588055684,-9572.402783918713,4295.960580821107,-2470.3818524339026,27184.705696666922,8194.551848715764,11678.808829642396,11012.995065807709,0.0,0.0,0.0,2019-03-17T21:24:17.257581,10,EyesOpen
-17293.52233332662,-9413.928915730587,4330.941060893662,-2554.6032255414993,27294.58687240921,7733.234194902682,11783.303234970956,10971.420821120837,0.0,0.0,0.0,2019-03-17T21:24:17.257919,10,EyesOpen
-17190.749012321117,-9302.349007409694,4474.841591696929,-2382.114813579895,27426.104536784238,7825.412789036369,11908.763576598594,11125.938430540375,0.0,0.0,0.0,2019-03-17T21:24:17.264618,10,EyesOpen
-17333.643714623897,-9446.24953821296,4451.014632107572,-2283.5436205319907,27330.5508292378,8287.959788794493,11822.843470912394,11188.344501059593,0.03,1.012,0.226,2019-03-17T21:24:17.265071,10,EyesOpen
-17454.589003871562,-9576.761374087499,4297.480499444067,-2450.779372546598,27184.43747573346,8251.437038354521,11686.69899543512,11036.129121318952,0.0,0.0,0.0,2019-03-17T21:24:17.272713,10,EyesOpen
-17341.824453094538,-9452.329212704804,4292.719577875087,-2581.8052985436084,27259.382874892104,7766.8512185634645,11754.08950496787,10945.984535930698,0.0,0.0,0.0,2019-03-17T21:24:17.280600,10,EyesOpen
-17209.993864297136,-9307.624019101146,4441.716306414164,-2440.922253241808,27409.541894142854,7725.858119232431,11890.613960100885,11073.814162470599,0.0,0.0,0.0,2019-03-17T21:24:17.280969,10,EyesOpen
-17312.677778324818,-9425.305953658337,4451.014632107572,-2305.4483300981915,27347.42639630156,8181.006691575849,11832.700590217184,11164.584596703602,0.0,0.0,0.0,2019-03-17T21:24:17.287139,10,EyesOpen
-17460.668678363407,-9593.525182428979,4310.2656972725035,-2429.612270547422,27193.109952582116,8274.414631654578,11687.704823935608,11044.443970256325,0.0,0.0,0.0,2019-03-17T21:24:17.287476,10,EyesOpen
-17372.848674398505,-9508.186222098617,4277.6321503677555,-2589.0919672360383,27233.52190655731,7821.009495378673,11722.84176621935,10934.451035791759,0.0,0.0,0.0,2019-03-17T21:24:17.295178,10,EyesOpen
-17219.627466157373,-9338.75999912739,4423.454931194178,-2480.1942682497825,27400.154161471626,7664.882560358354,11872.889026747827,11041.918223132876,0.0,0.0,0.0,2019-03-17T21:24:17.295581,10,EyesOpen
-17284.201655888755,-9404.652941781635,4476.339158575435,-2312.8467575128984,27383.65857406361,8094.058405644704,11859.008593441082,11167.289157782694,0.0,0.0,0.0,2019-03-17T21:24:17.303209,10,EyesOpen
-17449.470454391296,-9586.640845136744,4343.0780581328945,-2393.134223596361,27222.30133084075,8309.015132071392,11710.771824213485,11080.117354406995,0.0,0.0,0.0,2019-03-17T21:24:17.303633,10,EyesOpen
-17403.604674769005,-9542.116170181773,4269.496115386023,-2576.195010685326,27223.396566319057,7906.996656298239,11709.74364396854,10945.448094063771,0.03,1.014,0.224,2019-03-17T21:24:17.310416,10,EyesOpen
-17236.570088454497,-9359.457714493003,4390.0390732334945,-2523.2213763262484,27383.524463596877,7639.669792612767,11857.958061451682,11013.665618141367,0.0,0.0,0.0,2019-03-17T21:24:17.310865,10,EyesOpen
-17252.730399695683,-9381.80945894831,4473.344024818423,-2340.2276444706495,27401.607024861223,8007.691265069398,11878.58872158393,11154.503959954258,0.0,0.0,0.0,2019-03-17T21:24:17.317857,10,EyesOpen
-17419.139137165446,-9557.293004666926,4364.491029321079,-2368.5473046955235,27240.138022916082,8323.74493166744,11733.145920413246,11107.833517531577,0.0,0.0,0.0,2019-03-17T21:24:17.318175,10,EyesOpen
-17427.02930295817,-9554.007298231996,4258.9684437475735,-2562.582798312044,27188.19256880195,7992.849706751073,11686.676643690664,10953.248852878673,0.0,0.0,0.0,2019-03-17T21:24:17.325884,10,EyesOpen
-17242.962687368716,-9358.13896157014,4360.467715319123,-2546.131914392938,27344.297152077816,7641.547339147012,11833.549956506486,10988.586960862513,0.0,0.0,0.0,2019-03-17T21:24:17.326154,10,EyesOpen
-17214.531268421564,-9339.765827627878,4476.36151031989,-2345.6144148843787,27409.407783676124,7924.453368717835,11896.626579359363,11145.384448216493,0.0,0.0,0.0,2019-03-17T21:24:17.332885,10,EyesOpen
-17397.033261899145,-9531.297925865403,4384.428785375212,-2335.6678886017667,27258.667619069533,8308.433986715554,11756.972880002604,11126.139596240473,0.0,0.0,0.0,2019-03-17T21:24:17.339925,10,EyesOpen
-17447.190576456855,-9578.862438066297,4261.181266448649,-2525.4341990273238,27177.486083207856,8084.4695072733775,11679.83700988734,10969.498571097682,0.0,0.0,0.0,2019-03-17T21:24:17.340304,10,EyesOpen
-17273.2269493612,-9397.835659722765,4335.277299317992,-2563.3427576235244,27319.97845411044,7666.737755148144,11812.047578340482,10966.212864662752,0.0,0.0,0.0,2019-03-17T21:24:17.347526,10,EyesOpen
-17200.78494558155,-9322.979667541942,4462.078745612949,-2382.271275791082,27420.024862292394,7835.761646719176,11905.544925397031,11119.121148481507,0.036000000000000004,1.01,0.218,2019-03-17T21:24:17.347943,10,EyesOpen
-17365.562005706073,-9481.744108407987,4406.221736219137,-2317.987658737619,27298.789000366807,8279.846105557217,11794.747328132073,11146.658497650445,0.0,0.0,0.0,2019-03-17T21:24:17.355542,10,EyesOpen
-17455.93010853888,-9578.147182243727,4269.809039808398,-2489.783166621109,27183.901033866532,8170.970758315416,11687.034271601948,10997.527658644636,0.0,0.0,0.0,2019-03-17T21:24:17.356004,10,EyesOpen
-17311.80606029106,-9426.691761814567,4299.268639000492,-2581.6041328435103,27287.188444994503,7703.327560821482,11781.626854136808,10944.196396374273,0.0,0.0,0.0,2019-03-17T21:24:17.365035,10,EyesOpen
-17190.16786696528,-9306.215859200462,4453.674489697753,-2408.780444715076,27428.362062974225,7767.67823310831,11912.116338266891,11096.210610414817,0.0,0.0,0.0,2019-03-17T21:24:17.365390,10,EyesOpen
-17316.030539993113,-9448.462360914036,4437.670640667754,-2298.0051991945743,27336.429338029546,8238.025991681337,11829.839566926905,11165.433962992904,0.0,0.0,0.0,2019-03-17T21:24:17.371146,10,EyesOpen
-17450.006896258223,-9573.945054286129,4282.571885892378,-2454.400355148358,27180.52592045378,8238.651840526085,11689.537666980943,11020.818176367065,0.0,0.0,0.0,2019-03-17T21:24:17.371421,10,EyesOpen
-17330.313304700056,-9458.520645918923,4280.470821913579,-2581.984112499251,27256.477148112914,7769.175799986816,11760.482103882088,10936.775617215111,0.0,0.0,0.0,2019-03-17T21:24:17.378177,10,EyesOpen
-17189.854942542905,-9312.094367992207,4433.133236543326,-2446.6666515668217,27414.548684900845,7705.786252711565,11907.176602742267,11065.387554810948,0.0,0.0,0.0,2019-03-17T21:24:17.378541,10,EyesOpen
-17287.487362323685,-9415.24766865345,4455.060297853983,-2305.761254520566,27360.055131918805,8160.420734932511,11859.880311474839,11166.417439748937,0.0,0.0,0.0,2019-03-17T21:24:17.386164,10,EyesOpen
-17449.82808230258,-9582.215199734594,4305.460072214612,-2424.6054797894335,27192.752324670833,8278.080317745247,11705.966199155593,11047.148531335419,0.032,1.01,0.218,2019-03-17T21:24:17.386492,10,EyesOpen
-17374.59211046602,-9491.757689923965,4262.120039715772,-2584.934542767351,27225.05059540875,7832.475940284246,11737.03512394847,10929.265431078129,0.0,0.0,0.0,2019-03-17T21:24:17.393265,10,EyesOpen
-17214.330102721466,-9332.568565913269,4394.10709072436,-2498.1203673029386,27383.79268453034,7646.822350838465,11882.366166396878,11018.493594943715,0.0,0.0,0.0,2019-03-17T21:24:17.399762,10,EyesOpen
-17248.572975226998,-9383.977578160475,4454.859132153885,-2323.17326345125,27377.13186468266,8068.555065221199,11876.01827097157,11147.217291261828,0.0,0.0,0.0,2019-03-17T21:24:17.400232,10,EyesOpen
-17411.025453928167,-9545.401876616703,4337.780694696987,-2379.812583900998,27223.82124946371,8317.039408330847,11735.89518498125,11076.876351460976,0.0,0.0,0.0,2019-03-17T21:24:17.407800,10,EyesOpen
-17393.2558170862,-9515.338780324315,4257.22500768006,-2564.2368274017367,27205.738688199366,7925.459197218323,11718.192603372647,10931.455902034748,0.0,0.0,0.0,2019-03-17T21:24:17.408166,10,EyesOpen
-17212.184335253758,-9321.258583218883,4379.712567295142,-2512.4701872432456,27370.22517564597,7638.507501901091,11870.899721491305,10994.353710931982,0.0,0.0,0.0,2019-03-17T21:24:17.415735,10,EyesOpen
-17207.06578577349,-9327.002981543897,4483.826992967963,-2312.60088832389,27411.12886799918,8000.337541143602,11909.992922543637,11147.01612556173,0.0,0.0,0.0,2019-03-17T21:24:17.416060,10,EyesOpen
-17389.456020528796,-9524.905326951186,4371.330663124402,-2340.1829409817387,27245.033054951797,8330.852786404228,11759.18570270368,11097.171735426395,0.0,0.0,0.0,2019-03-17T21:24:17.422979,10,EyesOpen
-17415.406395841408,-9547.637051062233,4250.27361515446,-2545.0143271701727,27179.34127799765,8018.151881474481,11697.137260095747,10931.232384590196,0.0,0.0,0.0,2019-03-17T21:24:17.423282,10,EyesOpen
-17249.891728149858,-9359.882397637653,4338.875930175296,-2552.658623773888,27329.5002972484,7638.552205390001,11835.047523384992,10947.370344086927,0.032,1.018,0.216,2019-03-17T21:24:17.430912,10,EyesOpen
-17205.724681106174,-9321.392693685615,4461.2964345570135,-2358.623130157367,27407.530237141877,7897.832441071563,11909.478832421164,11107.028854731185,0.0,0.0,0.0,2019-03-17T21:24:17.431314,10,EyesOpen
-17375.173255821857,-9496.11628009275,4390.016721489039,-2330.929318777242,27267.183633707005,8306.712902392495,11782.677386126208,11107.431186131382,0.0,0.0,0.0,2019-03-17T21:24:17.438464,10,EyesOpen
-17434.74065479525,-9554.342574398825,4261.9635775045845,-2518.5722134795446,27174.5133011953,8104.65313251652,11696.198486828624,10950.253719121662,0.0,0.0,0.0,2019-03-17T21:24:17.438862,10,EyesOpen
-17270.298870837556,-9377.853200179721,4322.112121833816,-2572.3728623834686,27305.338061492213,7663.161476035295,11816.428520253721,10930.651239234357,0.0,0.0,0.0,2019-03-17T21:24:17.445560,10,EyesOpen
-17181.249520927613,-9288.423870614037,4465.990300892628,-2386.920438637786,27417.789687846864,7812.806405163576,11920.878222093372,11087.381671354971,0.0,0.0,0.0,2019-03-17T21:24:17.446078,10,EyesOpen
-17331.00620877817,-9452.01628828243,4422.046771293494,-2311.103321445384,27300.152456778582,8264.49045711642,11814.640380697296,11124.306753195138,0.0,0.0,0.0,2019-03-17T21:24:17.452202,10,EyesOpen
-17438.987486241756,-9565.205522204104,4268.937321774641,-2486.0951287859834,27168.657144148012,8171.775421115807,11694.477402505565,10968.090411196998,0.0,0.0,0.0,2019-03-17T21:24:17.459933,10,EyesOpen
-17301.79247877508,-9418.063988454818,4289.970313307084,-2588.13084222446,27270.87167154213,7699.326598563982,11788.555894917954,10911.048759347053,0.0,0.0,0.0,2019-03-17T21:24:17.460275,10,EyesOpen
-17183.73056456215,-9302.661931832068,4438.475303468144,-2430.461636836724,27405.675042352086,7724.6734767763,11915.513803424097,11052.915281404887,0.0,0.0,0.0,2019-03-17T21:24:17.468018,10,EyesOpen
-17302.530086342107,-9426.088264714273,4439.615242435365,-2304.621315553345,27329.07561410375,8200.072729596226,11846.961003179671,11136.287288223182,0.032,1.022,0.222,2019-03-17T21:24:17.468326,10,EyesOpen
-17431.67846580487,-9560.086972723839,4297.502851188523,-2439.849369507953,27187.611423446113,8240.81995973825,11716.627981260775,11008.032978538631,0.0,0.0,0.0,2019-03-17T21:24:17.476059,10,EyesOpen
-17344.685476384817,-9464.846189599775,4266.121001973272,-2592.780005071164,27232.784298990286,7760.190398715783,11756.391734646766,10892.608570171426,0.0,0.0,0.0,2019-03-17T21:24:17.476331,10,EyesOpen
-17185.742221563127,-9299.532687608325,4424.617221905854,-2454.1544859593496,27400.84706554974,7677.533647720057,11911.490489422142,11019.812347866577,0.0,0.0,0.0,2019-03-17T21:24:17.482627,10,EyesOpen
-17252.104550850934,-9377.316758312792,4473.165210862781,-2286.963437433653,27369.331105867757,8140.259461433824,11885.87539027636,11140.020029547219,0.0,0.0,0.0,2019-03-17T21:24:17.483075,10,EyesOpen
-17419.228544143265,-9546.832388261842,4322.290935789459,-2401.627886489378,27192.729972926376,8279.041442756825,11720.763053985007,11022.628667667947,0.0,0.0,0.0,2019-03-17T21:24:17.490718,10,EyesOpen
-17357.91770910236,-9475.060936815851,4269.250246197015,-2568.975397226262,27210.566665001712,7846.289318357625,11737.437455348667,10897.548305696047,0.0,0.0,0.0,2019-03-17T21:24:17.491117,10,EyesOpen
-17184.490523873632,-9289.072071203242,4411.899079310784,-2476.6179891369334,27379.836425761754,7647.828179338954,11896.291303192533,10995.113670243463,0.0,0.0,0.0,2019-03-17T21:24:17.498668,10,EyesOpen
-17230.825690129484,-9346.694868409022,4479.937789432739,-2295.7476730045883,27379.47879785047,8056.663937170975,11900.336968938944,11130.58759338708,0.0,0.0,0.0,2019-03-17T21:24:17.499088,10,EyesOpen
-17391.087697874034,-9536.639992790222,4354.589206527377,-2353.2140079991827,27219.61912150611,8320.749797910428,11753.195435189657,11060.045487886131,0.0,0.0,0.0,2019-03-17T21:24:17.505343,10,EyesOpen
-17380.91765414687,-9523.877146706242,4264.019937994473,-2545.394306825913,27193.84756014914,7949.040287618672,11727.580336043875,10913.44039600377,0.032,1.016,0.228,2019-03-17T21:24:17.505750,10,EyesOpen
-17212.005521298113,-9332.881490335643,4385.859297020352,-2505.429387739824,27361.17271914157,7640.899138557808,11877.672300061262,10968.582149575013,0.0,0.0,0.0,2019-03-17T21:24:17.512396,10,EyesOpen
-17213.681902132263,-9325.79598734331,4491.203068638214,-2314.4784348581356,27408.111382497715,7971.05675590715,11921.526422682575,11119.031741503686,0.0,0.0,0.0,2019-03-17T21:24:17.512808,10,EyesOpen
-17386.1032588605,-9515.964629169062,4389.949666255673,-2328.4259233982475,27252.05150271076,8318.849899631727,11778.430554679699,11080.519685807192,0.0,0.0,0.0,2019-03-17T21:24:17.520285,10,EyesOpen
-17406.376291081466,-9541.55737657039,4275.352272433313,-2524.8307019270305,27187.85729263512,8033.798102593197,11719.198431873136,10922.425797274804,0.0,0.0,0.0,2019-03-17T21:24:17.528273,10,EyesOpen
-17228.434053472763,-9349.310022510293,4362.859351975841,-2541.259234101681,27341.27966657635,7638.529853645547,11858.226282385145,10936.797968959567,0.0,0.0,0.0,2019-03-17T21:24:17.528669,10,EyesOpen
-17172.44293361222,-9292.536591593813,4497.819184996985,-2348.140162007828,27433.77118513241,7877.470001872779,11940.592460702952,11099.161040682917,0.0,0.0,0.0,2019-03-17T21:24:17.534936,10,EyesOpen
-17334.694246613293,-9464.82383785532,4433.937899343718,-2306.632972554323,27304.22047426945,8297.481631932455,11822.06115985646,11108.548773354147,0.0,0.0,0.0,2019-03-17T21:24:17.535423,10,EyesOpen
-17415.786375497148,-9545.6030423168,4289.657388884711,-2501.0931493154944,27197.177970072982,8109.659923274508,11723.55702204192,10944.375210329916,0.0,0.0,0.0,2019-03-17T21:24:17.542911,10,EyesOpen
-17266.141446368867,-9384.223447349483,4330.0469911154505,-2573.7363187952424,27312.35650925118,7656.008917809596,11830.264250071556,10907.20425930074,0.0,0.0,0.0,2019-03-17T21:24:17.543287,10,EyesOpen
-17166.095038186915,-9287.663911302556,4471.935864917739,-2391.6813602067664,27433.368853732212,7780.821058848031,11943.788760160061,11065.186389110851,0.038,1.008,0.228,2019-03-17T21:24:17.550920,10,EyesOpen
-17306.799269533072,-9439.991049765475,4437.916509856762,-2305.627144053834,27322.034814600327,8240.261166126867,11847.229224113134,11115.701331579845,0.0,0.0,0.0,2019-03-17T21:24:17.551380,10,EyesOpen
-17435.277096662176,-9566.814847804886,4284.672949871177,-2478.517887415634,27179.497740208833,8174.994072317371,11715.286876593456,10961.273129138128,0.0,0.0,0.0,2019-03-17T21:24:17.557508,10,EyesOpen
-17300.98781597469,-9420.500328600447,4299.201583767126,-2584.7333770672535,27271.564575620247,7707.306171334526,11797.273075255524,10895.111965550419,0.0,0.0,0.0,2019-03-17T21:24:17.557881,10,EyesOpen
-17169.64896555531,-9285.205219412474,4454.367393775868,-2423.398485588847,27417.968501802505,7710.48011904718,11935.183338544768,11037.581984708546,0.0,0.0,0.0,2019-03-17T21:24:17.565600,10,EyesOpen
-17274.99273717317,-9393.186496876062,4471.242960839625,-2282.2025158646725,27355.45067256101,8188.919209113027,11881.472096618665,11135.952012056352,0.0,0.0,0.0,2019-03-17T21:24:17.566117,10,EyesOpen
-17419.1614889099,-9540.819769003365,4322.961488123118,-2417.274107608093,27197.20032181744,8253.15812267758,11736.521033825999,11007.116557015963,0.0,0.0,0.0,2019-03-17T21:24:17.574118,10,EyesOpen
-17327.161708731855,-9447.501235902457,4295.938229076652,-2563.4992198347118,27243.62489505111,7791.281675253114,11782.297406470467,10901.258695275628,0.0,0.0,0.0,2019-03-17T21:24:17.574615,10,EyesOpen
-17173.15818943479,-9283.953521722975,4441.8727686253515,-2442.7327445426877,27405.049193507337,7669.688185416244,11931.674114665284,11015.878440842444,0.0,0.0,0.0,2019-03-17T21:24:17.580648,10,EyesOpen
-17245.0190478586,-9370.410069276104,4485.816298224485,-2275.407585550259,27381.199882173525,8120.567574568699,11910.484660921653,11142.00933480374,0.0,0.0,0.0,2019-03-17T21:24:17.587663,10,EyesOpen
-17411.20426788381,-9547.07825745085,4345.492046534067,-2369.396670984825,27217.89803718305,8307.584620426253,11758.76101955903,11049.115484847485,0.04,1.008,0.222,2019-03-17T21:24:17.588023,10,EyesOpen
-17362.522168460153,-9493.814050413854,4275.620493366778,-2554.066783674572,27221.161391873527,7881.649778085921,11761.242063193567,10910.53466922458,0.0,0.0,0.0,2019-03-17T21:24:17.595199,10,EyesOpen
-17182.59062559493,-9307.668722590057,4408.188689731203,-2482.4964979286788,27389.73824855545,7647.247033983116,11915.491451679642,10989.212809707262,0.0,0.0,0.0,2019-03-17T21:24:17.595560,10,EyesOpen
-17218.196954512234,-9333.350876969203,4492.074786671971,-2301.0897399294067,27405.675042352086,8037.530843917232,11932.50112921013,11129.224136975305,0.0,0.0,0.0,2019-03-17T21:24:17.603756,10,EyesOpen
-17391.937064163336,-9517.305733836381,4376.896247493773,-2350.5541504090015,27245.033054951797,8327.768245669395,11786.14190651678,11064.471133288282,0.0,0.0,0.0,2019-03-17T21:24:17.604070,10,EyesOpen
-17384.225712326253,-9506.621599986745,4281.029615524962,-2549.5964347835106,27210.454906279436,7969.402726817457,11748.926251998693,10907.472480234204,0.0,0.0,0.0,2019-03-17T21:24:17.611706,10,EyesOpen
-17204.651797372317,-9319.872775062655,4388.697968566175,-2532.139722363916,27370.292230879335,7627.242222695616,11893.229114202157,10947.102123153463,0.0,0.0,0.0,2019-03-17T21:24:17.612038,10,EyesOpen
-17193.54298037803,-9311.669684847557,4489.034949426049,-2349.1012870194063,27419.354309958737,7925.414493729412,11936.300925767533,11093.595456313546,0.0,0.0,0.0,2019-03-17T21:24:17.617919,10,EyesOpen
-17358.834130625026,-9490.148364323184,4402.779567573019,-2342.8651503163755,27277.577194878722,8301.795518612327,11804.939723603693,11075.356432838016,0.0,0.0,0.0,2019-03-17T21:24:17.618259,10,EyesOpen
-17399.916636933878,-9526.559356040878,4284.672949871177,-2537.5264927776448,27201.693022452953,8038.447265439901,11738.264469893513,10915.653218704847,0.0,0.0,0.0,2019-03-17T21:24:17.625903,10,EyesOpen
-17234.960762853716,-9347.074848064764,4357.651395517754,-2565.3767663689573,27336.02700662935,7626.258745939583,11868.083401689935,10914.334465781983,0.038,1.012,0.226,2019-03-17T21:24:17.626293,10,EyesOpen
-17177.87440751486,-9291.821335771243,4484.74341449063,-2375.18577279875,27429.390243219168,7835.113446129972,11954.919928898804,11069.455572301815,0.0,0.0,0.0,2019-03-17T21:24:17.633878,10,EyesOpen
-17338.739912359706,-9472.132858292205,4427.947631829695,-2319.1052459603843,27306.589759181712,8274.34757642121,11842.848282199893,11092.835497002066,0.0,0.0,0.0,2019-03-17T21:24:17.634291,10,EyesOpen
-17424.436500601354,-9563.216216947581,4282.728348103565,-2506.9046028738744,27192.86408339311,8121.819272258195,11737.66097279322,10931.59001250148,0.0,0.0,0.0,2019-03-17T21:24:17.640091,10,EyesOpen
-17274.344536583965,-9403.870630725698,4329.197624826148,-2577.2678944191807,27312.244750528906,7673.599740695923,11849.307936347477,10897.838878373967,0.0,0.0,0.0,2019-03-17T21:24:17.647409,10,EyesOpen
-17168.64313705482,-9288.490925847404,4482.977626678661,-2396.33052305347,27442.82364163681,7776.909503568352,11974.008318663637,11056.625670984467,0.0,0.0,0.0,2019-03-17T21:24:17.647775,10,EyesOpen
-17304.65350206536,-9433.933727018086,4457.206065321692,-2296.3288183604263,27341.547887509812,8243.837445239717,11882.790849541529,11114.539040868169,0.0,0.0,0.0,2019-03-17T21:24:17.655503,10,EyesOpen
-17426.001122713224,-9553.828484276353,4306.667066415199,-2452.6345673363885,27199.971938129896,8215.897764670583,11750.4238188772,10969.230350164218,0.0,0.0,0.0,2019-03-17T21:24:17.655966,10,EyesOpen
-17308.274484667123,-9418.354561132737,4308.2093367826155,-2572.886952505941,27276.593718122687,7747.740477054176,11824.519851746541,10893.815564372011,0.0,0.0,0.0,2019-03-17T21:24:17.663589,10,EyesOpen
-17174.54399759102,-9294.436489872514,4451.886350141329,-2430.0369536920734,27419.71193787002,7713.654066759833,11956.238681821667,11020.393493222415,0.0,0.0,0.0,2019-03-17T21:24:17.664003,10,EyesOpen
-17272.198769116258,-9408.7209592725,4465.632672981343,-2290.5173648020464,27358.714027251488,8177.676281652008,11901.052224761514,11114.919020523908,0.036000000000000004,1.014,0.218,2019-03-17T21:24:17.670169,10,EyesOpen
-17417.48510807575,-9544.686620794133,4326.090732346861,-2408.691037737255,27213.472391780902,8276.895675289115,11764.170141717213,11002.355635446982,0.0,0.0,0.0,2019-03-17T21:24:17.670538,10,EyesOpen
-17348.23940375321,-9455.324346461815,4279.889676557741,-2578.4972403642228,27243.043749695273,7808.045483594595,11789.964054818638,10880.739793865658,0.0,0.0,0.0,2019-03-17T21:24:17.678150,10,EyesOpen
-17191.933654777247,-9304.383016155127,4419.006934047572,-2478.6072943934555,27401.13763822766,7649.504560173102,11939.139597313357,10982.104954970475,0.0,0.0,0.0,2019-03-17T21:24:17.678565,10,EyesOpen
-17236.570088454497,-9375.103935611718,4477.009710909094,-2307.12471093234,27390.81113228931,8091.175030609969,11933.55166119953,11113.309694923128,0.0,0.0,0.0,2019-03-17T21:24:17.686174,10,EyesOpen
-17404.476392802764,-9547.681754551144,4341.468732532112,-2391.8378224179532,27228.358653588137,8300.856745345205,11782.52092391502,11021.622839167458,0.0,0.0,0.0,2019-03-17T21:24:17.686598,10,EyesOpen
-17366.925462117848,-9496.965646382052,4266.0092432509955,-2575.0103682291947,27225.54233378677,7888.377653166968,11777.04474652347,10879.398689198339,0.0,0.0,0.0,2019-03-17T21:24:17.693464,10,EyesOpen
-17191.77719256606,-9311.13324298063,4394.665884335743,-2509.653867441877,27393.22512069048,7623.151853460295,11933.842233877449,10951.281899366606,0.0,0.0,0.0,2019-03-17T21:24:17.693888,10,EyesOpen
-17219.918038835294,-9337.262432248883,4483.536420290044,-2320.803978538988,27421.768298359908,7997.163593430948,11963.03361213608,11098.043453460152,0.0,0.0,0.0,2019-03-17T21:24:17.699865,10,EyesOpen
-17402.755308479704,-9533.689562522122,4359.372479840813,-2368.5473046955235,27251.313895143736,8296.140527265135,11803.531563703009,11031.502310216703,0.0,0.0,0.0,2019-03-17T21:24:17.707770,10,EyesOpen
-17403.179991624354,-9531.007353187484,4259.0802024698505,-2563.8568477459967,27208.353842300636,7966.00526166025,11761.51028412703,10876.314148463505,0.0,0.0,0.0,2019-03-17T21:24:17.708104,10,EyesOpen
-17221.39325396934,-9340.056400305797,4361.406488586246,-2551.9210162068625,27370.292230879335,7612.0653882104625,11909.300018465521,10911.20522155824,0.036000000000000004,1.02,0.218,2019-03-17T21:24:17.715768,10,EyesOpen
-17186.613939596886,-9305.344141166705,4482.17296387827,-2350.2188742421718,27439.53793520188,7904.314446963603,11975.639996008873,11072.160133380907,0.0,0.0,0.0,2019-03-17T21:24:17.716239,10,EyesOpen
-17362.365706248966,-9487.77907941092,4390.307294166958,-2339.2441677146157,27283.54511064829,8290.798460340317,11833.415846039754,11053.965813394287,0.0,0.0,0.0,2019-03-17T21:24:17.722371,10,EyesOpen
-17408.142078893434,-9531.990829943517,4266.836257795841,-2524.2272048267373,27199.301385796236,8062.855370385096,11756.414086391222,10898.129451051886,0.0,0.0,0.0,2019-03-17T21:24:17.722668,10,EyesOpen
-17245.376675769887,-9359.70358368201,4335.947851651651,-2560.2805686331476,27333.925942650552,7640.295641457516,11883.304939664,10890.865134103911,0.0,0.0,0.0,2019-03-17T21:24:17.731806,10,EyesOpen
-17178.4555528707,-9282.567713566747,4475.109812630393,-2369.4860779626465,27437.727443900996,7824.295201813603,11978.210446621233,11049.406057525404,0.0,0.0,0.0,2019-03-17T21:24:17.732263,10,EyesOpen
-17342.696171128293,-9459.437067441591,4416.212965990659,-2308.398760366292,27307.819105126753,8267.887922273627,11861.713154520174,11073.255368859216,0.0,0.0,0.0,2019-03-17T21:24:17.738403,10,EyesOpen
-17439.658038575417,-9556.108362210794,4274.435850910646,-2480.77541360562,27190.98653685886,8153.3799354290895,11755.698830568652,10922.828128675,0.0,0.0,0.0,2019-03-17T21:24:17.738854,10,EyesOpen
-17285.051022178057,-9391.890095697654,4311.360932750814,-2557.687766276332,27303.773439380344,7698.253714830126,11864.909453977281,10880.829200843478,0.0,0.0,0.0,2019-03-17T21:24:17.745542,10,EyesOpen
-17176.22037842517,-9283.148858922585,4453.227454808647,-2395.078825363973,27432.832411865285,7756.0553259915505,11985.56417054703,11021.824004867554,0.0,0.0,0.0,2019-03-17T21:24:17.745934,10,EyesOpen
-17317.57281036053,-9425.283601913881,4437.625937178843,-2294.987713693108,27344.185393355536,8219.76461646135,11901.476907906164,11083.537171308657,0.038,1.02,0.22,2019-03-17T21:24:17.753060,10,EyesOpen
-17441.937916509858,-9554.052001720906,4291.154955763216,-2451.2934626690703,27199.502551496334,8218.825843194229,11765.600653362353,10941.424780061816,0.0,0.0,0.0,2019-03-17T21:24:17.753476,10,EyesOpen
-17324.300685441576,-9428.524604859902,4282.840106825842,-2589.293132936136,27267.965944762942,7742.309003151537,11825.659790713762,10849.514406861594,0.0,0.0,0.0,2019-03-17T21:24:17.760181,10,EyesOpen
-17171.615919067375,-9264.395745324582,4434.742562144108,-2448.231273678693,27424.919894328108,7684.060357101007,11969.023879650102,10979.199228191284,0.0,0.0,0.0,2019-03-17T21:24:17.760663,10,EyesOpen
-17272.735210983185,-9372.891112910642,4452.668661197265,-2308.6222778108454,27363.31848660928,8137.867824777106,11913.993884801137,11073.300072348127,0.0,0.0,0.0,2019-03-17T21:24:17.768189,10,EyesOpen
-17432.72899779427,-9541.31150738138,4311.025656583984,-2426.617136790411,27204.062307365217,8259.573073336252,11768.774601075007,10955.93106221331,0.0,0.0,0.0,2019-03-17T21:24:17.776699,10,EyesOpen
-17363.125665560445,-9463.125105276717,4262.164743204683,-2596.0880632505496,27231.018511178318,7808.671332439343,11796.3343019884,10833.644668298324,0.0,0.0,0.0,2019-03-17T21:24:17.777112,10,EyesOpen
-17191.106640232403,-9282.45595484447,4403.494823395589,-2493.337093989503,27400.332975427267,7631.801978564499,11954.60700447643,10937.177948615306,0.0,0.0,0.0,2019-03-17T21:24:17.782931,10,EyesOpen
-17245.801358914538,-9342.872720107165,4463.151629346804,-2323.0391529845183,27390.922891011585,8047.946756833406,11947.253280550633,11063.420601298882,0.0,0.0,0.0,2019-03-17T21:24:17.783257,10,EyesOpen
-17416.412224341897,-9524.994733929007,4330.069342859905,-2400.4879475221574,27225.788202975775,8278.840277056728,11791.148697274768,10975.980576989721,0.0,0.0,0.0,2019-03-17T21:24:17.790686,10,EyesOpen
-17376.424953511352,-9486.840306143798,4248.463123853579,-2588.197897457826,27215.126420870594,7886.947141521829,11783.035014037492,10833.37644736486,0.034,1.012,0.224,2019-03-17T21:24:17.791019,10,EyesOpen
-17203.511858405098,-9294.704710805978,4370.973035213117,-2540.8121992125753,27381.579861829265,7596.799146747488,11940.771274658595,10895.134317294875,0.0,0.0,0.0,2019-03-17T21:24:17.798761,10,EyesOpen
-17221.66147490281,-9314.687170349023,4466.906722415295,-2349.816542841976,27417.610873891223,7953.3988777874565,11980.736193744684,11044.913356889887,0.0,0.0,0.0,2019-03-17T21:24:17.799181,10,EyesOpen
-17401.168334623377,-9507.448614531591,4360.24419787457,-2373.4199849867805,27258.01941848033,8285.568152137776,11836.858014685871,11001.886248813422,0.0,0.0,0.0,2019-03-17T21:24:17.805379,10,EyesOpen
-17422.335436622554,-9526.425245574146,4246.674984297155,-2574.071594962072,27190.785371158767,7971.615549518532,11774.317833699923,10837.109188688897,0.0,0.0,0.0,2019-03-17T21:24:17.805805,10,EyesOpen
-17234.916059364805,-9318.866946562166,4349.895340191762,-2561.0181762001725,27351.092082392228,7608.578516075435,11927.114358796402,10872.089668761453,0.0,0.0,0.0,2019-03-17T21:24:17.813406,10,EyesOpen
-17188.73735532014,-9270.855399472166,4479.915437688284,-2354.957444066697,27434.173516532603,7877.984091995251,12006.932438246304,11039.32542077606,0.0,0.0,0.0,2019-03-17T21:24:17.813852,10,EyesOpen
-17357.2471567687,-9459.459419186047,4398.219811704136,-2329.0741239874515,27288.708363617465,8286.953960294004,11870.63150055784,11034.98918235173,0.0,0.0,0.0,2019-03-17T21:24:17.821353,10,EyesOpen
-17418.3121226206,-9532.840196232819,4257.001490235507,-2527.3117455615698,27181.75526639882,8076.422879269467,11769.109877241835,10868.893369304344,0.0,0.0,0.0,2019-03-17T21:24:17.821766,10,EyesOpen
-17279.485437808686,-9368.66663320859,4302.733159391065,-2587.9967317577284,27298.185503266515,7628.404513407292,11878.365204139376,10838.159720678297,0.0,0.0,0.0,2019-03-17T21:24:17.828470,10,EyesOpen
-17190.77136406557,-9276.912722219555,4444.934957615728,-2397.068130620495,27416.33682445727,7786.744271128688,11990.056871182547,11000.656902868379,0.04,1.018,0.218,2019-03-17T21:24:17.836315,10,EyesOpen
-17333.084921012512,-9434.805445051843,4409.887422309807,-2314.0984552023956,27309.093154560705,8253.024012210848,11893.631445602352,11050.23307207025,0.0,0.0,0.0,2019-03-17T21:24:17.836714,10,EyesOpen
-17427.565744825097,-9539.389257358225,4275.08405149985,-2484.1505270183716,27186.5161879678,8165.829857090695,11780.844543080872,10900.63284643088,0.0,0.0,0.0,2019-03-17T21:24:17.844337,10,EyesOpen
-17295.355176371955,-9390.616046263702,4298.888659344752,-2584.7333770672535,27286.473189171935,7691.883467660364,11873.783096526038,10839.344363134429,0.0,0.0,0.0,2019-03-17T21:24:17.844814,10,EyesOpen
-17173.515817346077,-9253.7339632194,4454.702669942698,-2419.9563169427297,27432.51948744291,7726.14869191035,12009.257019669654,10984.474239882737,0.0,0.0,0.0,2019-03-17T21:24:17.850920,10,EyesOpen
-17301.457202608253,-9389.52081078539,4445.717268671664,-2312.533833090524,27344.78889045583,8191.3331975142,11930.198899531235,11055.105752361507,0.0,0.0,0.0,2019-03-17T21:24:17.851273,10,EyesOpen
-17430.40441637092,-9540.439789347623,4300.654447156721,-2460.3906226623803,27198.34026078466,8227.230099109423,11791.081642041403,10921.710541452234,0.0,0.0,0.0,2019-03-17T21:24:17.857646,10,EyesOpen
-17325.082996497513,-9429.843357782765,4283.778880092965,-2602.6594761204096,27258.980543491907,7760.212750460238,11845.686953745719,10828.57082230697,0.0,0.0,0.0,2019-03-17T21:24:17.857987,10,EyesOpen
-17170.54303533352,-9270.989509938898,4431.814483620463,-2479.367253704936,27416.113307012714,7663.787324880043,11992.604970050452,10949.158483643352,0.0,0.0,0.0,2019-03-17T21:24:17.865650,10,EyesOpen
-17242.113321079414,-9360.105915082208,4470.997091650616,-2323.754408807088,27378.51767283889,8119.56174606821,11962.407763291332,11064.471133288282,0.0,0.0,0.0,2019-03-17T21:24:17.866007,10,EyesOpen
-17398.463773544285,-9523.83244321733,4332.148055094249,-2427.0865234239727,27217.495705782858,8272.045346742314,11812.427557996221,10961.317832627039,0.038,1.02,0.21,2019-03-17T21:24:17.873600,10,EyesOpen
-17336.72825535873,-9448.574119636312,4279.0403102684395,-2598.65851386291,27235.108880413638,7833.682934484832,11828.185537837213,10837.66798230028,0.0,0.0,0.0,2019-03-17T21:24:17.874036,10,EyesOpen
-17182.881198272848,-9291.55311483778,4404.545355384988,-2522.9978588816953,27390.542911355846,7611.417187621259,11973.13660062988,10920.950582140755,0.0,0.0,0.0,2019-03-17T21:24:17.880785,10,EyesOpen
-17221.370902224888,-9339.721124138967,4479.580161521454,-2332.0916094889176,27399.70712658252,8022.555175132177,11984.558342046541,11068.449743801326,0.0,0.0,0.0,2019-03-17T21:24:17.881113,10,EyesOpen
-17391.49002927423,-9515.495242535502,4359.350128096357,-2379.164383311794,27240.33918861618,8287.40099518311,11838.020305397547,11003.160298247374,0.0,0.0,0.0,2019-03-17T21:24:17.888868,10,EyesOpen
-17374.994441866213,-9498.306751049371,4268.534990374445,-2569.0871559485386,27209.09144986766,7908.605981899022,11809.298313772479,10855.236453442152,0.0,0.0,0.0,2019-03-17T21:24:17.895187,10,EyesOpen
-17206.17171599528,-9318.7998913288,4376.717433538131,-2538.7334869782317,27363.743169753932,7586.9420274426975,11955.813998677017,10904.812622644022,0.0,0.0,0.0,2019-03-17T21:24:17.895640,10,EyesOpen
-17182.79179129503,-9302.728987065433,4491.560696549499,-2335.109094990384,27421.56713265981,7928.655496675432,12010.352255147965,11069.723793235278,0.0,0.0,0.0,2019-03-17T21:24:17.903301,10,EyesOpen
-17348.86525259796,-9476.603207183267,4393.280076179513,-2347.5813683964457,27260.00872373685,8276.023957255358,11860.796732997505,11036.911432374887,0.0,0.0,0.0,2019-03-17T21:24:17.903686,10,EyesOpen
-17390.998290896212,-9509.124995365739,4277.475688156568,-2541.259234101681,27189.53367346927,7991.933285228406,11796.602522921863,10879.018709542599,0.0,0.0,0.0,2019-03-17T21:24:17.910416,10,EyesOpen
-17219.806280113018,-9332.836786846732,4370.794221257475,-2546.6683562598655,27342.866640432676,7604.801071262488,11937.46321647921,10900.118756308408,0.03,1.022,0.216,2019-03-17T21:24:17.910834,10,EyesOpen
-17164.373953863855,-9283.26061764486,4498.534440819555,-2349.3248044639595,27426.305702484337,7844.255309612193,12014.688493572296,11062.548883265124,0.0,0.0,0.0,2019-03-17T21:24:17.917848,10,EyesOpen
-17319.3385981725,-9445.400171923658,4436.865977867363,-2303.280210886027,27291.614090396655,8268.78199205184,11886.612997843386,11075.647005515935,0.0,0.0,0.0,2019-03-17T21:24:17.918381,10,EyesOpen
-17389.657186228895,-9519.630315259734,4301.9955518240395,-2490.073739299028,27183.61046118861,8086.950550907916,11782.364461703834,10917.284896050083,0.0,0.0,0.0,2019-03-17T21:24:17.925875,10,EyesOpen
-17225.394216226843,-9351.61225218919,4356.690270506176,-2545.237844614726,27309.137858049617,7645.1683217487725,11900.69459685023,10898.10709930743,0.0,0.0,0.0,2019-03-17T21:24:17.926238,10,EyesOpen
-17142.2457268531,-9255.20917835345,4504.345894377934,-2359.3160342354818,27424.495211183457,7769.131096497906,12012.408615637853,11057.653851229412,0.0,0.0,0.0,2019-03-17T21:24:17.933898,10,EyesOpen
-17293.835257748993,-9412.43134885208,4471.935864917739,-2273.0383006379966,27311.44008772851,8226.023104908838,11911.624599888873,11107.006502986731,0.0,0.0,0.0,2019-03-17T21:24:17.934283,10,EyesOpen
-17395.11101187599,-9523.45246356159,4334.9196714067075,-2433.3897153603693,27183.14107455505,8171.887179838083,11789.584075162897,10962.569530316536,0.0,0.0,0.0,2019-03-17T21:24:17.940524,10,EyesOpen
-17258.69831546525,-9374.85806642271,4354.8797792052965,-2538.97935616724,27276.68312510051,7702.388787554359,11875.258311660089,10898.665892918812,0.0,0.0,0.0,2019-03-17T21:24:17.940893,10,EyesOpen
-17135.87547968334,-9243.742733447878,4500.054359442515,-2397.358703298414,27414.168705245105,7692.933999649764,11998.751699775661,11029.647115426913,0.0,0.0,0.0,2019-03-17T21:24:17.947616,10,EyesOpen
-17241.17454781229,-9367.638452963645,4497.595667552432,-2276.279303584016,27339.17860259755,8157.515008153321,11928.45546346372,11113.309694923128,0.03,1.014,0.222,2019-03-17T21:24:17.955391,10,EyesOpen
-17381.610558224984,-9521.485510049524,4350.387078569779,-2411.663819749811,27186.627946690078,8223.162081618557,11789.964054818638,10990.039824252108,0.0,0.0,0.0,2019-03-17T21:24:17.955714,10,EyesOpen
-17295.75750777215,-9420.612087322723,4326.202491069137,-2561.487562833734,27241.255610138847,7766.292424952081,11842.423599055242,10891.96036958222,0.0,0.0,0.0,2019-03-17T21:24:17.963437,10,EyesOpen
-17138.58004076243,-9251.521140518325,4471.533533517544,-2446.5772445890007,27406.680870852575,7646.263557227083,11995.376586362909,11010.670484384356,0.0,0.0,0.0,2019-03-17T21:24:17.963819,10,EyesOpen
-17218.241658001145,-9328.858176333688,4509.755016536119,-2291.634952024812,27370.26987913488,8085.430632284955,11964.151199358845,11124.642029361967,0.0,0.0,0.0,2019-03-17T21:24:17.970154,10,EyesOpen
-17391.758250207695,-9519.898536193197,4362.032337430995,-2392.150746840328,27198.273205551293,8260.578901836741,11805.409110237255,11021.488728700726,0.0,0.0,0.0,2019-03-17T21:24:17.970497,10,EyesOpen
-17337.75643560367,-9473.943349593086,4300.989723323551,-2564.616807057477,27210.5219615128,7840.611975265977,11818.395473765788,10895.603703928437,0.0,0.0,0.0,2019-03-17T21:24:17.978128,10,EyesOpen
-17159.702439272696,-9289.630864814624,4439.682297668731,-2486.6986258862767,27381.75867578491,7610.925449243242,11978.65748151034,10983.98250150472,0.0,0.0,0.0,2019-03-17T21:24:17.978554,10,EyesOpen
-17185.719869818673,-9319.425740173549,4523.27782193158,-2297.1558329052727,27397.203731203525,8003.600895834076,11995.823621252015,11128.240660219271,0.0,0.0,0.0,2019-03-17T21:24:17.986164,10,EyesOpen
-17342.182081005823,-9494.797527169887,4409.283925209514,-2337.6795456027444,27239.53452581579,8292.363082452188,11848.816197969461,11066.929825178364,0.0,0.0,0.0,2019-03-17T21:24:17.986691,10,EyesOpen
-17349.781674120626,-9483.286378775403,4315.3171915194025,-2534.3748968094465,27201.24598756385,7937.28327003518,11811.622895195831,10913.64156170387,0.032,1.008,0.224,2019-03-17T21:24:17.992781,10,EyesOpen
-17189.072631486968,-9296.470498617948,4412.9943147890945,-2519.823911169042,27351.65087600361,7593.6922542682005,11949.89078639636,10948.085599909497,0.0,0.0,0.0,2019-03-17T21:24:17.993160,10,EyesOpen
-17156.170863648756,-9274.632844285112,4525.758865566118,-2319.529929105035,27412.022937777394,7912.361074967513,12007.357121390954,11113.309694923128,0.0,0.0,0.0,2019-03-17T21:24:18.000772,10,EyesOpen
-17332.637886123408,-9467.170771023128,4427.455893451678,-2322.6815250732334,27255.091339956685,8282.952998036504,11861.646099286807,11087.851057988531,0.0,0.0,0.0,2019-03-17T21:24:18.001098,10,EyesOpen
-17374.16742732137,-9503.492355763,4302.464938457601,-2523.2213763262484,27171.89814709403,8020.565869875654,11782.85620008185,10924.146881597862,0.0,0.0,0.0,2019-03-17T21:24:18.007877,10,EyesOpen
-17199.108564747403,-9315.402426171593,4377.119764938327,-2553.5750452965553,27311.663605173067,7608.511460842069,11914.195050501234,10922.11287285243,0.0,0.0,0.0,2019-03-17T21:24:18.008269,10,EyesOpen
-17133.68500872672,-9249.97887015091,4513.577164837976,-2356.410307456292,27408.6701761091,7818.349637788491,12006.775976035116,11081.279645118671,0.0,0.0,0.0,2019-03-17T21:24:18.017338,10,EyesOpen
-17291.33186237,-9416.834642509775,4459.709460700687,-2290.763233991055,27286.517892660846,8262.143523948613,11890.435146145242,11106.514764608713,0.0,0.0,0.0,2019-03-17T21:24:18.023619,10,EyesOpen
-17387.623177483463,-9509.035588387918,4311.003304839529,-2480.976579305718,27163.829167345666,8103.088510404648,11771.479162154099,10939.077846894008,0.0,0.0,0.0,2019-03-17T21:24:18.024071,10,EyesOpen
-17223.74018713715,-9332.792083357821,4354.499799549556,-2552.2562923736923,27284.97562229343,7648.364621205881,11884.154305953301,10904.9243813663,0.0,0.0,0.0,2019-03-17T21:24:18.030421,10,EyesOpen
-17120.564534731453,-9234.01972460982,4497.394501852334,-2377.75622341111,27411.57590288829,7739.179758927794,12001.27744689911,11055.865711672988,0.032,1.008,0.222,2019-03-17T21:24:18.030741,10,EyesOpen
-17256.12786485289,-9397.276866111382,4476.808545208996,-2278.0674431404404,27313.630558685134,8211.561526246252,11914.21740224569,11121.177508971396,0.0,0.0,0.0,2019-03-17T21:24:18.038413,10,EyesOpen
-17384.2033605818,-9531.700257265598,4319.5416712214555,-2450.0641167240283,27164.56677491269,8173.831781605695,11777.469429668121,10969.498571097682,0.0,0.0,0.0,2019-03-17T21:24:18.038779,10,EyesOpen
-17256.306678808534,-9396.025168421886,4328.370610281302,-2570.361205382491,27252.4314823665,7698.968970652697,11858.986241696626,10894.195544027752,0.0,0.0,0.0,2019-03-17T21:24:18.045500,10,EyesOpen
-17116.116537584847,-9252.839893441189,4479.468402799178,-2428.070000180006,27404.33393768477,7666.08955455894,11998.103499186456,11026.026132825153,0.0,0.0,0.0,2019-03-17T21:24:18.045888,10,EyesOpen
-17224.768367382094,-9363.123400583674,4494.801699495519,-2295.770024749044,27340.07267237576,8125.708475793419,11944.973402616191,11118.025913003197,0.0,0.0,0.0,2019-03-17T21:24:18.053070,10,EyesOpen
-17383.555159992597,-9521.93254493863,4345.603805256344,-2430.014601947618,27176.346144240637,8212.500299513376,11795.194363021179,10991.537391130614,0.0,0.0,0.0,2019-03-17T21:24:18.053531,10,EyesOpen
-17281.85472272095,-9419.226279166494,4315.697171175143,-2582.9005340219182,27221.943702929464,7762.269110950127,11837.282697830522,10885.277197990084,0.0,0.0,0.0,2019-03-17T21:24:18.061062,10,EyesOpen
-17137.887136684316,-9257.220835354428,4455.127353087349,-2481.0883380279947,27379.970536228484,7609.338475386915,11984.357176346442,10987.961112017765,0.0,0.0,0.0,2019-03-17T21:24:18.061498,10,EyesOpen
-17207.959855551704,-9330.154577512096,4506.536365334555,-2312.444426112703,27358.959896440494,8044.571643420654,11965.984042404181,11108.571125098602,0.0,0.0,0.0,2019-03-17T21:24:18.069085,10,EyesOpen
-17367.52895921814,-9501.145422595195,4380.807802773453,-2386.4063485153138,27202.251816064338,8260.198922181002,11818.596639465886,11022.628667667947,0.03,1.006,0.218,2019-03-17T21:24:18.069380,10,EyesOpen
-17316.656388837862,-9446.517759146423,4316.524185719989,-2557.285434876136,27206.945682399954,7862.561388321089,11822.195270323191,10894.10613704993,0.0,0.0,0.0,2019-03-17T21:24:18.075348,10,EyesOpen
-17141.463415797167,-9265.669794758534,4441.559844202977,-2496.4886899577014,27372.303887880313,7598.609638048368,11974.36594657492,10964.7376495287,0.0,0.0,0.0,2019-03-17T21:24:18.083156,10,EyesOpen
-17166.072686442458,-9295.464670117459,4523.188414953758,-2306.498862087591,27393.985080001963,7972.800191974663,11997.209429408245,11111.454500133337,0.0,0.0,0.0,2019-03-17T21:24:18.083467,10,EyesOpen
-17339.030485037623,-9482.191143297094,4403.830099562419,-2345.0556212729957,27226.615217520623,8277.722689833963,11844.882290945327,11052.512950004691,0.0,0.0,0.0,2019-03-17T21:24:18.090595,10,EyesOpen
-17342.874985083938,-9483.644006686689,4294.70888313161,-2545.975452181751,27175.94381284044,7937.976174113295,11796.736633388595,10890.708671892724,0.0,0.0,0.0,2019-03-17T21:24:18.091015,10,EyesOpen
-17164.73158177514,-9291.709577048967,4398.286866937503,-2534.3525450649913,27337.144593852117,7582.203457618172,11944.347553771444,10925.242117076174,0.0,0.0,0.0,2019-03-17T21:24:18.098692,10,EyesOpen
-17142.603354764386,-9270.587178538703,4510.671438058786,-2344.8321038284425,27400.020051004896,7869.959815735796,12003.065586455536,11082.307825363616,0.0,0.0,0.0,2019-03-17T21:24:18.099035,10,EyesOpen
-17295.46693509423,-9433.933727018086,4433.915547599262,-2319.4852256161244,27264.76964530583,8274.414631654578,11880.242750673622,11081.637273029957,0.0,0.0,0.0,2019-03-17T21:24:18.105316,10,EyesOpen
-17347.63590665292,-9487.577913710824,4304.007208825017,-2512.3807802654246,27175.47442620688,8036.860291583574,11798.122441544825,10918.469538506215,0.0,0.0,0.0,2019-03-17T21:24:18.105637,10,EyesOpen
-17179.34962264891,-9304.60653359968,4377.812669016441,-2544.254367858692,27318.570294209756,7619.620277836357,11930.288306509055,10916.815509416523,0.03,1.022,0.214,2019-03-17T21:24:18.113352,10,EyesOpen
-17114.238991050603,-9234.153835076551,4510.783196781063,-2357.1702667677723,27421.790650104365,7799.73063465722,12029.217127468244,11075.37878458247,0.0,0.0,0.0,2019-03-17T21:24:18.113658,10,EyesOpen
-17278.94899594176,-9400.674331268589,4451.305204785491,-2298.698103272689,27292.12818051913,8239.590613793209,11914.284457479056,11097.596418571045,0.0,0.0,0.0,2019-03-17T21:24:18.121374,10,EyesOpen
-17376.179084322346,-9516.344608824804,4303.515470447001,-2484.664617140844,27168.120702281085,8115.046693688238,11799.95528459016,10936.730913726202,0.0,0.0,0.0,2019-03-17T21:24:18.121758,10,EyesOpen
-17223.89664934834,-9357.535464469847,4337.33365980788,-2575.8597345184967,27279.5888518797,7648.901063072809,11904.896724807826,10887.713538135713,0.0,0.0,0.0,2019-03-17T21:24:18.128027,10,EyesOpen
-17106.77350840253,-9230.979887363897,4491.493641316133,-2401.4490725337355,27422.103574526736,7718.0126569286185,12039.387171195409,11041.739409177233,0.0,0.0,0.0,2019-03-17T21:24:18.128402,10,EyesOpen
-17240.258126289624,-9379.082546124762,4477.859077198395,-2295.0100654375633,27335.110585106682,8187.28753176779,11957.490379511164,11107.319427409104,0.0,0.0,0.0,2019-03-17T21:24:18.134981,10,EyesOpen
-17371.708735431283,-9518.088044892316,4327.208319569626,-2452.00871849164,27188.930176368976,8181.833706120695,11818.2390115546,10957.83096049201,0.0,0.0,0.0,2019-03-17T21:24:18.142981,10,EyesOpen
-17251.344591539455,-9382.52471477088,4324.459055001624,-2578.296074664125,27261.90862201555,7711.19537486975,11887.708233321695,10871.083840260964,0.0,0.0,0.0,2019-03-17T21:24:18.143280,10,EyesOpen
-17112.96494161665,-9237.64070721158,4467.510219515589,-2447.270148667115,27407.262016208413,7643.0002025366075,12020.90227853087,10988.631664351424,0.0,0.0,0.0,2019-03-17T21:24:18.151004,10,EyesOpen
-17210.910285819806,-9344.057362563297,4487.559734291999,-2303.3919696083035,27350.98032366995,8100.920391192483,11968.040402894068,11085.370014353994,0.032,1.02,0.20600000000000002,2019-03-17T21:24:18.151533,10,EyesOpen
-17362.991555093715,-9504.989922641507,4342.631023243788,-2418.548157042045,27187.29849902374,8224.905517686071,11815.66856094224,10969.923254242332,0.0,0.0,0.0,2019-03-17T21:24:18.157588,10,EyesOpen
-17277.36202208543,-9416.00762796493,4298.083996544361,-2575.3009409071137,27215.28288308178,7784.01735830514,11844.234090356123,10855.996412753631,0.0,0.0,0.0,2019-03-17T21:24:18.157947,10,EyesOpen
-17108.539296214498,-9232.365695520128,4445.426695993745,-2468.4148989218356,27388.732420054963,7614.658190567278,12005.881906256904,10963.329489628017,0.0,0.0,0.0,2019-03-17T21:24:18.165630,10,EyesOpen
-17164.91039573078,-9298.45980387447,4501.753092021119,-2298.5863445504124,27377.690658294043,8033.239308981813,11999.04227245358,11091.136764423461,0.0,0.0,0.0,2019-03-17T21:24:18.165984,10,EyesOpen
-17346.160691518868,-9486.862657888254,4370.727166024109,-2373.464688475691,27213.315929569715,8266.591521095219,11845.15051187879,11006.13308025993,0.0,0.0,0.0,2019-03-17T21:24:18.173721,10,EyesOpen
-17315.650560337373,-9446.137779490684,4298.531031433467,-2554.357356352491,27206.364537044115,7880.241618185237,11840.233128098624,10866.05469775852,0.0,0.0,0.0,2019-03-17T21:24:18.174094,10,EyesOpen
-17148.794787978506,-9265.334518591704,4413.1060735113715,-2511.419655253846,27369.018181445383,7589.735995499611,11991.08505142749,10927.678457221802,0.0,0.0,0.0,2019-03-17T21:24:18.180732,10,EyesOpen
-17146.559613532976,-9273.69407101799,4506.3799031233675,-2320.2898884165156,27404.445696407045,7944.391124771968,12022.310438431554,11077.14457239444,0.0,0.0,0.0,2019-03-17T21:24:18.181105,10,EyesOpen
-17329.598048877484,-9465.673204144621,4394.86705003584,-2345.569711395468,27243.289618884282,8272.022994997858,11870.832666257938,11028.261307270683,0.0,0.0,0.0,2019-03-17T21:24:18.188264,10,EyesOpen
-17354.944927089804,-9488.58374221131,4277.788612578942,-2545.3496033370025,27179.028353575275,7954.225892332303,11810.304142272968,10862.366659923395,0.026000000000000002,1.022,0.20800000000000002,2019-03-17T21:24:18.188607,10,EyesOpen
-17162.943442218715,-9282.858286244666,4382.43948011869,-2532.9220334198517,27343.26897183287,7587.813745476455,11962.296004569054,10896.117794050908,0.0,0.0,0.0,2019-03-17T21:24:18.195357,10,EyesOpen
-17125.146642344793,-9249.062448628241,4498.199164652725,-2341.658156115789,27416.783859346375,7850.64790852641,12030.491176902196,11051.730638948757,0.0,0.0,0.0,2019-03-17T21:24:18.203324,10,EyesOpen
-17292.56120831504,-9426.602354836745,4420.68331488172,-2311.8856325013203,27279.745314090887,8262.92583500455,11907.668341120285,11052.021211626676,0.0,0.0,0.0,2019-03-17T21:24:18.203794,10,EyesOpen
-17352.933270088826,-9491.02008235694,4288.875077828775,-2501.4507772267793,27183.878682122075,8055.032259825738,11821.077683100424,10891.602741670937,0.0,0.0,0.0,2019-03-17T21:24:18.210409,10,EyesOpen
-17191.01723325458,-9317.525841894847,4346.2520058455475,-2555.7878679976307,27310.769535394855,7612.110091699374,11938.893728124349,10869.9662530382,0.0,0.0,0.0,2019-03-17T21:24:18.210764,10,EyesOpen
-17102.2361042781,-9222.128596559596,4494.220554139681,-2362.110002292395,27430.597237419755,7773.534390155601,12053.021735313147,11036.866728885976,0.0,0.0,0.0,2019-03-17T21:24:18.217876,10,EyesOpen
-17263.235719589677,-9396.695720755544,4445.963137860673,-2292.4843183141134,27313.719965662953,8225.643125253097,11943.565242715507,11071.914264191899,0.0,0.0,0.0,2019-03-17T21:24:18.218268,10,EyesOpen
-17372.982784865235,-9505.772233697442,4289.433871440157,-2479.9707508052293,27178.156635541516,8125.037923459759,11813.343979518888,10906.332541266984,0.0,0.0,0.0,2019-03-17T21:24:18.225936,10,EyesOpen
-17231.36213199641,-9353.914481868087,4309.729255405576,-2582.386443899446,27279.25357571287,7659.115810288884,11906.081367263958,10847.949784749722,0.0,0.0,0.0,2019-03-17T21:24:18.226312,10,EyesOpen
-17111.981464860615,-9233.483282742893,4456.535512988033,-2417.139997141361,27418.169667502603,7694.319807805992,12034.648601370884,10991.93972253081,0.026000000000000002,1.024,0.214,2019-03-17T21:24:18.233979,10,EyesOpen
-17230.44571047374,-9363.190455817039,4450.008803607083,-2297.1334811608176,27333.79183218382,8164.041717534271,11960.396106290355,11068.606206012513,0.0,0.0,0.0,2019-03-17T21:24:18.234395,10,EyesOpen
-17357.001287579693,-9495.155155081173,4303.180194280171,-2443.649166065355,27180.257699520316,8194.350683015668,11820.027151111026,10931.701771223758,0.0,0.0,0.0,2019-03-17T21:24:18.240573,10,EyesOpen
-17250.294059550055,-9373.025223377374,4290.484403429557,-2584.4204526448793,27240.20507814945,7726.036933188073,11876.174733182757,10836.19276716623,0.0,0.0,0.0,2019-03-17T21:24:18.240862,10,EyesOpen
-17102.929008356215,-9230.01876235232,4450.299376285002,-2446.8678172669192,27409.318376698302,7646.330612460449,12031.00526702467,10967.93394898581,0.0,0.0,0.0,2019-03-17T21:24:18.249257,10,EyesOpen
-17204.204762483212,-9328.522900166858,4482.575295278465,-2294.8983067152867,27365.68777152154,8099.467527802888,11989.721595015717,11074.350604337527,0.0,0.0,0.0,2019-03-17T21:24:18.249600,10,EyesOpen
-17364.10914231648,-9493.724643436033,4338.294784819458,-2401.2255550891823,27203.19058933146,8245.983212707426,11837.372104808344,10962.658937294358,0.0,0.0,0.0,2019-03-17T21:24:18.255470,10,EyesOpen
-17304.80996427655,-9429.642192082667,4279.777917835465,-2578.877220019963,27217.138077871572,7802.8375271365085,11856.639308528818,10832.012990953088,0.0,0.0,0.0,2019-03-17T21:24:18.255979,10,EyesOpen
-17127.381816790323,-9242.155759591551,4421.957364315673,-2487.6373991533997,27390.5652631003,7603.102338683884,12020.768168064138,10929.600707244957,0.0,0.0,0.0,2019-03-17T21:24:18.262920,10,EyesOpen
-17169.984241722137,-9290.03319621482,4486.5092023026,-2313.763179035566,27389.022992732884,8007.691265069398,12020.969333764237,11056.670374473379,0.0,0.0,0.0,2019-03-17T21:24:18.270852,10,EyesOpen
-17338.71756061525,-9471.417602469635,4360.892398463774,-2374.202296042716,27224.022415163807,8268.670233329563,11866.719945278162,10978.238103179707,0.026000000000000002,1.016,0.214,2019-03-17T21:24:18.271197,10,EyesOpen
-17315.494098126186,-9453.424448183114,4273.675891599166,-2563.454516345801,27194.42870550498,7887.237714199748,11839.674334487241,10824.703970516202,0.0,0.0,0.0,2019-03-17T21:24:18.277914,10,EyesOpen
-17139.67527624074,-9259.478361544414,4396.565782614444,-2517.3428675345026,27363.765521498386,7581.957588429164,11994.638978795885,10886.081860790475,0.0,0.0,0.0,2019-03-17T21:24:18.278345,10,EyesOpen
-17141.26225009707,-9259.21014061095,4493.0582634280045,-2327.397743153303,27405.38446967417,7913.545717423644,12031.42995016932,11034.89977537391,0.0,0.0,0.0,2019-03-17T21:24:18.285541,10,EyesOpen
-17309.347368400977,-9439.946346276563,4387.669788321232,-2338.372449680859,27247.96113347544,8269.698413574508,11888.44584088872,11003.160298247374,0.0,0.0,0.0,2019-03-17T21:24:18.286069,10,EyesOpen
-17335.230688480224,-9468.78009662391,4266.791554306931,-2535.2689665876587,27180.436513475957,7980.064508922638,11827.962020392659,10847.323935904973,0.0,0.0,0.0,2019-03-17T21:24:18.294897,10,EyesOpen
-17160.01536369507,-9272.531780306314,4359.685404263188,-2541.88508294643,27338.999788641908,7592.9322949567195,11974.053022152546,10871.419116427795,0.0,0.0,0.0,2019-03-17T21:24:18.295320,10,EyesOpen
-17111.400319504777,-9242.379277036105,4480.563638277488,-2354.5551126665014,27417.610873891223,7830.754855961187,12049.959546322769,11029.445949726814,0.0,0.0,0.0,2019-03-17T21:24:18.302938,10,EyesOpen
-17275.059792406537,-9423.651924568645,4402.3101809394575,-2322.3238971619485,27275.789055322297,8251.951128476992,11921.12409128238,11034.408036995894,0.0,0.0,0.0,2019-03-17T21:24:18.303357,10,EyesOpen
-17352.709752644274,-9492.271780046438,4263.41644089418,-2515.040637855606,27167.606612158612,8068.733879176842,11819.24484005509,10872.737869350656,0.0,0.0,0.0,2019-03-17T21:24:18.309190,10,EyesOpen
-17184.088192473435,-9307.89224003461,4324.079075345883,-2569.4447838598235,27300.39832596759,7631.533757631035,11943.453483993231,10860.131485477863,0.026000000000000002,1.012,0.212,2019-03-17T21:24:18.309518,10,EyesOpen
-17095.105897796857,-9223.849680882655,4465.185638092236,-2389.893220650342,27415.353347701235,7755.1165527244275,12050.741857378705,11012.391568707415,0.0,0.0,0.0,2019-03-17T21:24:18.316676,10,EyesOpen
-17252.328068295486,-9391.778336975376,4423.611393405366,-2309.762216778066,27300.957119578972,8207.359398288656,11946.023934605591,11050.836569170544,0.0,0.0,0.0,2019-03-17T21:24:18.316973,10,EyesOpen
-17347.56885141955,-9498.150288838184,4277.520391645478,-2477.467355426235,27173.99921107283,8143.455760890933,11829.169014593246,10902.264523776117,0.0,0.0,0.0,2019-03-17T21:24:18.324689,10,EyesOpen
-17209.97151255268,-9358.8095139038,4290.618513896288,-2589.293132936136,27265.082569728205,7669.03998482704,11916.519631924586,10832.638839797835,0.0,0.0,0.0,2019-03-17T21:24:18.331073,10,EyesOpen
-17097.944569342682,-9219.915773858522,4444.3314605154355,-2430.52869207009,27415.37569944569,7675.007900596607,12055.882758603426,10974.192437433296,0.0,0.0,0.0,2019-03-17T21:24:18.331492,10,EyesOpen
-17206.01525378409,-9333.08265603574,4449.114733828871,-2301.045036440496,27349.996846913917,8149.535435382776,11996.89650498587,11061.990089653742,0.0,0.0,0.0,2019-03-17T21:24:18.337708,10,EyesOpen
-17358.72237190275,-9492.651759702178,4280.984912036051,-2456.881398782897,27180.414161731504,8188.114546312636,11840.099017631892,10913.820375659512,0.0,0.0,0.0,2019-03-17T21:24:18.338044,10,EyesOpen
-17261.626393988896,-9381.787107203854,4263.08116472735,-2599.1055487520157,27237.500517070355,7725.098159920951,11897.408890415298,10814.556278533493,0.0,0.0,0.0,2019-03-17T21:24:18.345774,10,EyesOpen
-17104.85125837937,-9218.73113140239,4416.3917799463015,-2472.8405443239863,27400.690603338553,7611.752463788089,12049.981898067224,10931.344143312472,0.0,0.0,0.0,2019-03-17T21:24:18.346160,10,EyesOpen
-17173.15818943479,-9296.761071295867,4461.07291711246,-2308.9799057221303,27370.135768668148,8059.726126161352,12024.210336710255,11043.259327800195,0.024,1.014,0.214,2019-03-17T21:24:18.353796,10,EyesOpen
-17337.219993736744,-9475.820896127332,4322.626211956288,-2406.2770493360817,27200.709545696922,8234.650878268585,11869.53626507953,10938.228480604706,0.0,0.0,0.0,2019-03-17T21:24:18.354216,10,EyesOpen
-17286.637996034384,-9420.925011745097,4256.465048368579,-2584.979246256262,27202.318871297703,7804.826832393031,11871.212645913678,10801.927542916244,0.0,0.0,0.0,2019-03-17T21:24:18.360403,10,EyesOpen
-17109.67923518172,-9237.283079300294,4389.077948221916,-2500.3555417484695,27374.583765814754,7579.767117472544,12030.625287368928,10891.714500393213,0.0,0.0,0.0,2019-03-17T21:24:18.360780,10,EyesOpen
-17134.892002927303,-9269.469591315936,4471.488830028633,-2306.3871033653145,27395.75086781393,7986.613570048043,12054.541653936107,11045.583909223546,0.0,0.0,0.0,2019-03-17T21:24:18.368487,10,EyesOpen
-17313.08010972501,-9454.318517961327,4350.029450658494,-2357.930226079253,27230.772641989308,8270.994814752914,11901.454556161709,10978.618082835446,0.0,0.0,0.0,2019-03-17T21:24:18.368930,10,EyesOpen
-17300.227856663212,-9441.130988732695,4254.565150089878,-2548.07651616055,27197.33443228417,7918.820729115097,11869.53626507953,10832.415322353283,0.0,0.0,0.0,2019-03-17T21:24:18.376467,10,EyesOpen
-17116.56357247395,-9241.708724702445,4364.692195021176,-2518.236937312715,27363.340838353735,7595.256876380072,12026.154938477868,10887.601779413437,0.0,0.0,0.0,2019-03-17T21:24:18.376939,10,EyesOpen
-17109.656883437263,-9223.804977393744,4471.935864917739,-2323.0615047289734,27415.48745816797,7908.158947009915,12075.48523849073,11040.331249276549,0.0,0.0,0.0,2019-03-17T21:24:18.383511,10,EyesOpen
-17288.448487335263,-9428.859881026732,4370.682462535198,-2323.732057062633,27258.01941848033,8277.968559022971,11929.863623364405,11011.117519273463,0.0,0.0,0.0,2019-03-17T21:24:18.390499,10,EyesOpen
-17325.977066275726,-9471.059974558351,4243.635147051233,-2516.940536134307,27183.699868166434,8013.905050027973,11861.042602186513,10848.419171383282,0.024,1.014,0.212,2019-03-17T21:24:18.390906,10,EyesOpen
-17152.52752930254,-9285.048757201286,4320.413389255213,-2540.2534056011923,27328.27095130336,7606.969190474652,11995.555400318552,10852.956575507711,0.0,0.0,0.0,2019-03-17T21:24:18.398045,10,EyesOpen
-17102.19140078919,-9228.945878618464,4442.431562236734,-2354.242188244127,27416.180362246083,7817.455568010279,12076.96045362478,11005.663693626368,0.0,0.0,0.0,2019-03-17T21:24:18.398436,10,EyesOpen
-17265.56030101303,-9402.417767336103,4375.823363759919,-2309.404588866781,27283.45570367047,8244.753866762385,11954.69641145425,11017.666580398867,0.0,0.0,0.0,2019-03-17T21:24:18.406064,10,EyesOpen
-17350.161653776366,-9491.243599801493,4232.101646912294,-2503.842413883497,27164.27620223477,8079.976806637861,11845.217567112157,10849.29088941704,0.0,0.0,0.0,2019-03-17T21:24:18.406492,10,EyesOpen
-17191.576026865965,-9326.84651933271,4280.090842257839,-2577.781984541653,27283.50040715938,7619.240298180616,11956.015164377113,10810.085929642431,0.0,0.0,0.0,2019-03-17T21:24:18.413298,10,EyesOpen
-17080.912540067737,-9216.20538427894,4433.490864454611,-2398.699807965733,27414.325167456293,7717.744435995154,12075.954625124292,10964.22355940623,0.0,0.0,0.0,2019-03-17T21:24:18.413734,10,EyesOpen
-17219.22513475718,-9348.214787031984,4423.454931194178,-2293.4230915812363,27328.382710025635,8196.071767338726,11997.99174046418,11031.23408928324,0.0,0.0,0.0,2019-03-17T21:24:18.420756,10,EyesOpen
-17344.260793240166,-9476.960835094553,4269.764336319487,-2463.855143052953,27183.7669233998,8153.715211595919,11860.930843464237,10878.281101975574,0.0,0.0,0.0,2019-03-17T21:24:18.421330,10,EyesOpen
-17221.03562605806,-9358.13896157014,4266.411574651191,-2589.740167825242,27258.689970813986,7668.794115638032,11931.919983854294,10795.333778301929,0.0,0.0,0.0,2019-03-17T21:24:18.428745,10,EyesOpen
-17073.08942950838,-9208.695198141957,4425.4442364507,-2434.462599094224,27418.080260524785,7651.247996240616,12082.05665136059,10942.654126006857,0.02,1.016,0.214,2019-03-17T21:24:18.429239,10,EyesOpen
-17186.54688436352,-9319.738664595921,4435.480169711133,-2302.699065530189,27352.343780081726,8118.824138501184,12023.584487865506,11036.576156208057,0.0,0.0,0.0,2019-03-17T21:24:18.436757,10,EyesOpen
-17342.89733682839,-9475.26210251595,4283.600066137322,-2432.585052559978,27191.590033959157,8203.939581386994,11870.63150055784,10910.86994539141,0.0,0.0,0.0,2019-03-17T21:24:18.437036,10,EyesOpen
-17250.98696362817,-9375.416860034093,4249.804228520898,-2582.677016577365,27236.24881938086,7750.7132590667325,11912.45161443372,10806.397891807306,0.0,0.0,0.0,2019-03-17T21:24:18.442984,10,EyesOpen
-17082.365403457334,-9199.620389893102,4403.092491995393,-2463.430459908302,27407.440830164058,7615.619315578857,12073.205360556289,10923.386922286383,0.0,0.0,0.0,2019-03-17T21:24:18.450280,10,EyesOpen
-17148.571270533954,-9272.822352984233,4450.254672796092,-2300.7097602736667,27382.98802172995,8048.5502539336985,12050.071305045047,11038.699571931313,0.0,0.0,0.0,2019-03-17T21:24:18.450719,10,EyesOpen
-17312.498964369173,-9448.909395803143,4319.429912499179,-2385.109947336906,27222.882476196584,8254.63333781163,11899.867582305382,10945.872777208422,0.0,0.0,0.0,2019-03-17T21:24:18.458322,10,EyesOpen
-17268.354269069943,-9397.835659722765,4250.497132599012,-2563.230998901248,27225.34116808667,7844.858806712486,11904.606152129907,10810.890592442822,0.0,0.0,0.0,2019-03-17T21:24:18.458800,10,EyesOpen
-17093.407165218254,-9201.028549793786,4379.623160317321,-2498.1874225363044,27389.55943459981,7592.082928667418,12061.381287739432,10887.691186391257,0.0,0.0,0.0,2019-03-17T21:24:18.466323,10,EyesOpen
-17121.033921365015,-9241.753428191356,4462.257559568591,-2311.818577267954,27409.22896972048,7974.498924553267,12080.670843204362,11031.435254983337,0.0,0.0,0.0,2019-03-17T21:24:18.466764,10,EyesOpen
-17303.580618331507,-9449.021154525419,4339.613537742322,-2355.359775466892,27241.993217705873,8279.39907066811,11924.633315161862,10967.285748396605,0.022,1.02,0.216,2019-03-17T21:24:18.472996,10,EyesOpen
-17300.205504918755,-9451.815122582331,4233.889786468719,-2550.2446353727146,27197.312080539716,7938.244395046759,11881.87442801886,10811.985827921133,0.0,0.0,0.0,2019-03-17T21:24:18.473358,10,EyesOpen
-17129.080549368926,-9268.240245370895,4327.767113181008,-2543.4720568027565,27349.706274236,7575.07325113693,12028.367761178943,10842.786531780546,0.0,0.0,0.0,2019-03-17T21:24:18.481014,10,EyesOpen
-17096.782278631006,-9237.886576400588,4440.419905235756,-2345.8379323289314,27417.14148725766,7873.0443564706275,12093.947779410813,11002.780318591633,0.0,0.0,0.0,2019-03-17T21:24:18.481471,10,EyesOpen
-17268.75660047014,-9424.993029235964,4349.783581469486,-2333.7009350896997,27271.944555275986,8268.111439718181,11959.166760345312,10987.737594573211,0.0,0.0,0.0,2019-03-17T21:24:18.489029,10,EyesOpen
-17321.2384964512,-9475.73148914951,4220.6352020067225,-2530.195120596304,27184.839807133652,8028.880718813029,11877.918169250272,10824.078121671453,0.0,0.0,0.0,2019-03-17T21:24:18.489481,10,EyesOpen
-17160.59650905091,-9287.909780491565,4288.428042939669,-2570.2494466602143,27318.21266629847,7601.8506409943875,12000.85276375446,10812.365807576873,0.0,0.0,0.0,2019-03-17T21:24:18.495651,10,EyesOpen
-17095.150601285768,-9214.01491332232,4417.442311935701,-2388.887392149853,27409.184266231572,7780.172858258827,12083.867142661471,10958.970899459231,0.0,0.0,0.0,2019-03-17T21:24:18.496039,10,EyesOpen
-17251.61281247292,-9393.879400954176,4372.403546858257,-2325.2072721966833,27289.937709562506,8224.48083454142,11974.589464019475,10987.98346376222,0.0,0.0,0.0,2019-03-17T21:24:18.502694,10,EyesOpen
-17336.258868725166,-9488.226114300027,4235.499112069501,-2505.8317191400197,27175.38501922906,8097.008835912805,11865.758820266583,10835.701028788213,0.0,0.0,0.0,2019-03-17T21:24:18.503064,10,EyesOpen
-17181.33892790543,-9320.140995996118,4278.548571890423,-2587.460289890801,27291.12235201864,7634.908871043786,11974.142429130368,10793.90326665679,0.024,1.016,0.214,2019-03-17T21:24:18.510736,10,EyesOpen
-17074.966976042626,-9204.805994606733,4429.869881852851,-2417.4752733081905,27425.14341177266,7702.835822443465,12098.932218424347,10942.385905073394,0.0,0.0,0.0,2019-03-17T21:24:18.518588,10,EyesOpen
-17208.92098056328,-9350.606423688701,4408.479262409122,-2316.0654087144626,27329.522648992857,8168.4673629364215,12010.911048759348,10999.941647045809,0.0,0.0,0.0,2019-03-17T21:24:18.518920,10,EyesOpen
-17329.15101398838,-9475.843247871786,4264.668138583677,-2467.5431808880785,27190.941833369954,8166.276891979801,11880.667433818273,10859.729154077668,0.0,0.0,0.0,2019-03-17T21:24:18.525290,10,EyesOpen
-17204.49533516113,-9339.788179372332,4267.573865362867,-2593.741130082742,27269.4858633859,7695.839726428953,11951.388353274866,10779.687557183213,0.0,0.0,0.0,2019-03-17T21:24:18.525645,10,EyesOpen
-17045.41796987271,-9185.829363564178,4429.176977774737,-2445.884340510886,27431.692472898063,7647.761124105588,12103.290808593132,10915.720273938212,0.0,0.0,0.0,2019-03-17T21:24:18.533302,10,EyesOpen
-17152.371067091353,-9301.969027753954,4447.259539039081,-2305.113053931362,27374.717876281487,8109.190536640947,12051.1441887789,11011.206926251285,0.0,0.0,0.0,2019-03-17T21:24:18.533625,10,EyesOpen
-17317.729272571716,-9468.333061734804,4300.542688434445,-2426.1924536457605,27210.074926623696,8220.72574147293,11901.946294539726,10891.781555626578,0.0,0.0,0.0,2019-03-17T21:24:18.541319,10,EyesOpen
-17237.866489632903,-9381.250665336927,4261.9635775045845,-2582.4758508772675,27244.854240996152,7770.449849420768,11937.373809501387,10777.65354843778,0.0,0.0,0.0,2019-03-17T21:24:18.541754,10,EyesOpen
-17066.495664894064,-9200.179183504484,4403.830099562419,-2475.433346680802,27413.699318611543,7598.900210726287,12096.473526534262,10882.170305510797,0.0,0.0,0.0,2019-03-17T21:24:18.548464,10,EyesOpen
-17116.20594456267,-9256.30441383176,4467.912550915784,-2292.5513735474797,27408.156085986626,8038.871948584551,12095.266532333677,11020.371141477961,0.032,1.014,0.216,2019-03-17T21:24:18.548802,10,EyesOpen
-17295.556342072054,-9441.958003277541,4328.504720748034,-2372.4588599752024,27237.567572303724,8264.959843749983,11934.892765866849,10929.69011422278,0.0,0.0,0.0,2019-03-17T21:24:18.557335,10,EyesOpen
-17274.23277786169,-9418.063988454818,4240.438847594124,-2565.399118113413,27221.787240718277,7859.722716775265,11919.872393592883,10785.230789808129,0.0,0.0,0.0,2019-03-17T21:24:18.557727,10,EyesOpen
-17096.37994723081,-9234.533814732291,4365.943892710673,-2508.1563005633716,27392.688678823553,7581.30938783996,12077.072212347057,10855.549377864525,0.0,0.0,0.0,2019-03-17T21:24:18.563917,10,EyesOpen
-17108.785165403508,-9247.07314337172,4454.702669942698,-2323.2626704290715,27424.33874897227,7938.512615980222,12105.503631294207,10998.578190634036,0.0,0.0,0.0,2019-03-17T21:24:18.564267,10,EyesOpen
-17285.207484389244,-9436.861805541732,4339.099447619849,-2356.633824900845,27261.595697593177,8262.411744882076,11951.790684675061,10945.626908019412,0.0,0.0,0.0,2019-03-17T21:24:18.570941,10,EyesOpen
-17297.724461284215,-9447.814160324831,4222.669210752155,-2558.201856398804,27203.592920731655,7942.0665433486165,11898.481774149153,10786.70600494218,0.0,0.0,0.0,2019-03-17T21:24:18.578052,10,EyesOpen
-17115.33422652891,-9253.868073686132,4327.700057947643,-2550.6022632839995,27362.290306364335,7576.414355804248,12047.456150943775,10818.04315066852,0.0,0.0,0.0,2019-03-17T21:24:18.578529,10,EyesOpen
-17088.825057604918,-9224.25201228285,4440.643422680309,-2362.154705781306,27427.19977226255,7839.829664210041,12107.403529572908,10966.79401001859,0.0,0.0,0.0,2019-03-17T21:24:18.586130,10,EyesOpen
-17256.194920086255,-9404.228258636984,4367.57557005591,-2335.801999068499,27286.517892660846,8248.643070297609,11975.595292519964,10963.396544861382,0.0,0.0,0.0,2019-03-17T21:24:18.586592,10,EyesOpen
-17302.86536250894,-9454.25146272796,4247.658461053188,-2519.6898007023096,27198.34026078466,8039.140169518015,11892.916189779782,10809.124804630854,0.032,1.008,0.216,2019-03-17T21:24:18.593560,10,EyesOpen
-17136.30016282799,-9268.17319013753,4313.350238007336,-2564.84032450203,27332.78600368333,7604.108167184373,12014.263810427645,10797.770118447557,0.0,0.0,0.0,2019-03-17T21:24:18.593943,10,EyesOpen
-17064.484007893087,-9199.218058492906,4449.517065229066,-2380.6395984458445,27438.28623751238,7759.96688127123,12109.258724362699,10955.394620346382,0.0,0.0,0.0,2019-03-17T21:24:18.601560,10,EyesOpen
-17225.953009838227,-9376.132115856662,4396.521079125533,-2311.9973912235964,27313.87642787414,8207.96289538895,11993.677853784306,10989.16810621835,0.0,0.0,0.0,2019-03-17T21:24:18.601961,10,EyesOpen
-17317.37164466043,-9467.796619867877,4258.677871069654,-2478.3390734599916,27196.462714250414,8114.577307054676,11879.438087873232,10845.088761459441,0.0,0.0,0.0,2019-03-17T21:24:18.608114,10,EyesOpen
-17176.309785402987,-9315.402426171593,4286.997531294529,-2573.199876928315,27299.50425618938,7645.615356637879,11974.254187852644,10797.300731813995,0.0,0.0,0.0,2019-03-17T21:24:18.608484,10,EyesOpen
-17053.53165310999,-9189.96443628841,4440.576367446944,-2407.6628574923106,27439.09090031277,7687.9048571473195,12103.849602204515,10950.49958831067,0.0,0.0,0.0,2019-03-17T21:24:18.616246,10,EyesOpen
-17175.438067369232,-9325.863042576677,4434.273175510547,-2291.634952024812,27354.757768482898,8156.687993608474,12022.980990765214,11027.724865403756,0.0,0.0,0.0,2019-03-17T21:24:18.616611,10,EyesOpen
-17309.66029282335,-9462.29809073187,4289.143298762238,-2437.10010493995,27204.442287020956,8179.017386319326,11883.21553268618,10892.139183537864,0.0,0.0,0.0,2019-03-17T21:24:18.624208,10,EyesOpen
-17199.488544403142,-9332.456807190993,4282.571885892378,-2566.740222780731,27273.933860532507,7712.223555114693,11949.644917207352,10808.029569152543,0.0,0.0,0.0,2019-03-17T21:24:18.624625,10,EyesOpen
-17047.09435070686,-9168.015023233298,4438.028268579039,-2425.0972181674506,27442.264848025425,7634.707705343689,12106.911791194892,10945.02341091912,0.03,1.012,0.22,2019-03-17T21:24:18.631394,10,EyesOpen
-17142.87157569785,-9277.002129197375,4470.751222461608,-2271.8089546929546,27400.601196360734,8090.370367809578,12067.684479675829,11055.485732017247,0.0,0.0,0.0,2019-03-17T21:24:18.637757,10,EyesOpen
-17310.62141783493,-9455.927843562109,4324.704924190632,-2383.7688426695877,27232.09139491217,8228.928831688027,11909.322370209977,10941.02244866162,0.0,0.0,0.0,2019-03-17T21:24:18.638076,10,EyesOpen
-17251.746922939652,-9387.822078206787,4266.36687116228,-2557.4642488317786,27244.787185762787,7785.514925183646,11921.92875408277,10812.879897699344,0.0,0.0,0.0,2019-03-17T21:24:18.645735,10,EyesOpen
-17088.109801782346,-9204.113090528619,4401.237297205603,-2466.492648898679,27410.34655694325,7584.8856669528095,12074.993500112712,10909.35002676845,0.0,0.0,0.0,2019-03-17T21:24:18.646111,10,EyesOpen
-17129.77345344704,-9249.956518406454,4466.414984037278,-2289.3997775792814,27408.200789475537,7993.922590484928,12071.037241344124,11043.438141755836,0.0,0.0,0.0,2019-03-17T21:24:18.653841,10,EyesOpen
-17301.345443885977,-9432.458511884035,4342.228691843592,-2354.175133010761,27241.97086596142,8251.235872654423,11915.35734121291,10968.31392864155,0.0,0.0,0.0,2019-03-17T21:24:18.654307,10,EyesOpen
-17277.540836041073,-9407.692779027555,4258.990795492029,-2540.9239579348514,27222.25662735184,7871.703251803309,11895.285474692044,10824.972191449666,0.0,0.0,0.0,2019-03-17T21:24:18.660446,10,EyesOpen
-17094.256531507555,-9212.740863888368,4378.684387050198,-2498.3438847474918,27386.45254212052,7564.746745198578,12047.500854432685,10882.036195044064,0.0,0.0,0.0,2019-03-17T21:24:18.660789,10,EyesOpen
-17089.607368660854,-9203.554296917237,4482.396481322823,-2303.280210886027,27433.77118513241,7907.890726076452,12088.918636908369,11037.492577730725,0.0,0.0,0.0,2019-03-17T21:24:18.668414,10,EyesOpen
-17270.902367937848,-9399.154412645628,4376.516267838034,-2318.881728515831,27273.35271517667,8256.667346557064,11941.151254314334,11000.545144146103,0.028,1.012,0.218,2019-03-17T21:24:18.668867,10,EyesOpen
-17297.880923495402,-9423.33900014627,4259.951920503607,-2515.599431466989,27202.05065036424,7960.842008691074,11878.298148906011,10841.445427113227,0.0,0.0,0.0,2019-03-17T21:24:18.676458,10,EyesOpen
-17126.733616201116,-9242.625146225113,4341.28991857647,-2532.229129341737,27347.873431190663,7565.886684165798,12012.90035401587,10856.555206365014,0.0,0.0,0.0,2019-03-17T21:24:18.676916,10,EyesOpen
-17079.81730458943,-9191.77492758929,4469.141896860826,-2337.9030630472976,27432.541839187368,7814.795710420098,12089.119802608468,11019.924106588855,0.0,0.0,0.0,2019-03-17T21:24:18.683604,10,EyesOpen
-17253.69152470726,-9376.534447256858,4390.262590678048,-2309.784568522521,27288.373087450636,8229.778197977328,11953.51176899812,11018.314780988072,0.0,0.0,0.0,2019-03-17T21:24:18.683955,10,EyesOpen
-17323.898354041383,-9448.775285336409,4254.296929156414,-2501.8978121158852,27185.197435044938,8041.688268385919,11857.220453884656,10856.152874964819,0.0,0.0,0.0,2019-03-17T21:24:18.690112,10,EyesOpen
-17159.59068055042,-9275.437507085504,4311.830319384375,-2564.9967867132173,27315.821029641753,7594.07223392394,11981.607911778441,10836.326877632962,0.0,0.0,0.0,2019-03-17T21:24:18.697985,10,EyesOpen
-17063.18760671468,-9177.849790793633,4455.708498443187,-2385.4228717592805,27438.822679379307,7724.762883754121,12097.278189334655,10995.828926066033,0.0,0.0,0.0,2019-03-17T21:24:18.698374,10,EyesOpen
-17215.917076577793,-9336.033086303842,4417.576422402432,-2304.1072254308733,27329.56735248177,8182.526610198809,11995.51069682964,11040.510063232192,0.0,0.0,0.0,2019-03-17T21:24:18.707533,10,EyesOpen
-17334.85070882448,-9459.861750586242,4272.51360088749,-2472.326454201514,27196.57447297269,8116.432501844467,11874.408945370787,10891.803907371033,0.0,0.0,0.0,2019-03-17T21:24:18.707986,10,EyesOpen
-17199.667358358784,-9317.36937968366,4290.506755174012,-2572.7751937836642,27292.93284331952,7651.247996240616,11968.487437783175,10834.359924120894,0.028,1.01,0.218,2019-03-17T21:24:18.713750,10,EyesOpen
-17074.966976042626,-9181.7166425844,4436.798922633997,-2419.0622471645174,27431.826583364797,7661.686260901244,12099.759232969194,10972.449001365781,0.0,0.0,0.0,2019-03-17T21:24:18.714198,10,EyesOpen
-17196.91809379078,-9311.088539491719,4431.859187109374,-2298.698103272689,27353.37196032667,8130.000010728838,12026.423159411332,11049.89779590342,0.0,0.0,0.0,2019-03-17T21:24:18.720694,10,EyesOpen
-17338.42698793733,-9471.819933869832,4280.314359702392,-2440.5422735860675,27196.172141572493,8182.213685776435,11876.331195393945,10915.452053004748,0.0,0.0,0.0,2019-03-17T21:24:18.721074,10,EyesOpen
-17238.358228010922,-9359.27890053736,4256.643862324222,-2590.9248102813735,27247.33528463069,7713.1399766373615,11923.269858750089,10814.578630277949,0.0,0.0,0.0,2019-03-17T21:24:18.730155,10,EyesOpen
-17093.317758240435,-9190.72439559989,4408.345151942391,-2468.39254717738,27413.14052500016,7598.497879326092,12072.691270433817,10933.758131713645,0.0,0.0,0.0,2019-03-17T21:24:18.730591,10,EyesOpen
-17164.82098875296,-9273.939940206998,4458.413059522279,-2300.240373640105,27388.50890261041,8051.970070835361,12048.48433118872,11055.396325039426,0.0,0.0,0.0,2019-03-17T21:24:18.738140,10,EyesOpen
-17321.08203424001,-9448.127084747206,4323.989668368062,-2391.0555113620176,27225.6764442535,8228.504148543376,11898.660588104796,10957.071001180531,0.0,0.0,0.0,2019-03-17T21:24:18.738564,10,EyesOpen
-17283.41934483282,-9402.618933036201,4252.665251811177,-2576.0832519630494,27224.268284352816,7790.029977563618,11895.799564814517,10815.204479122696,0.0,0.0,0.0,2019-03-17T21:24:18.744421,10,EyesOpen
-17104.38187174581,-9219.580497691692,4384.182916186204,-2499.908506859363,27386.407838631614,7560.54461724098,12047.746723621694,10897.771823140602,0.0,0.0,0.0,2019-03-17T21:24:18.744883,10,EyesOpen
-17129.237011580113,-9250.090628873186,4470.527705017055,-2306.8117865099653,27406.390298174658,7965.468819793323,12069.405563998887,11044.689839445335,0.028,1.014,0.216,2019-03-17T21:24:18.750598,10,EyesOpen
-17310.733176557205,-9437.152378219651,4349.3588983248355,-2356.6785283897557,27243.669598540022,8246.58670980772,11917.368998213888,10979.55685610257,0.0,0.0,0.0,2019-03-17T21:24:18.751001,10,EyesOpen
-17300.049042707567,-9414.599468064245,4258.610815836289,-2542.1533038798934,27214.76879295931,7889.763461323198,11890.815125800984,10833.19763340922,0.0,0.0,0.0,2019-03-17T21:24:18.758481,10,EyesOpen
-17132.455662781675,-9235.338477532683,4364.714546765631,-2518.0134198681617,27371.566280313287,7556.767172428033,12037.911956061358,10875.710651363213,0.0,0.0,0.0,2019-03-17T21:24:18.766265,10,EyesOpen
-17119.782223675516,-9224.8778611276,4468.538399760532,-2327.733019320133,27424.33874897227,7875.145420449427,12087.063442118579,11029.021266582164,0.0,0.0,0.0,2019-03-17T21:24:18.766579,10,EyesOpen
-17291.51067632564,-9409.235049394973,4366.3238723664135,-2337.7466008361102,27267.518909873834,8243.68098302853,11940.503053725131,10997.929990044831,0.0,0.0,0.0,2019-03-17T21:24:18.772925,10,EyesOpen
-17319.450356894777,-9444.707267845544,4248.440772109124,-2534.0172688981615,27194.026374104786,7976.063546665138,11871.413811613776,10840.730171290657,0.0,0.0,0.0,2019-03-17T21:24:18.773427,10,EyesOpen
-17150.87350021285,-9263.278158101817,4336.081962118383,-2554.044431930117,27348.543983524323,7575.609693003857,12015.984894750703,10858.00806975461,0.0,0.0,0.0,2019-03-17T21:24:18.780956,10,EyesOpen
-17090.993176817083,-9201.788509105267,4473.165210862781,-2360.590083669434,27448.076301583806,7799.037730579106,12108.834041218048,11023.969772335264,0.0,0.0,0.0,2019-03-17T21:24:18.781318,10,EyesOpen
-17259.145350354356,-9380.535409514358,4405.618239118843,-2317.630030826334,27313.25057902939,8232.348648589688,11985.318301358022,11037.671391686368,0.0,0.0,0.0,2019-03-17T21:24:18.789040,10,EyesOpen
-17343.590240906506,-9471.082326302807,4258.432001880647,-2511.2184895537484,27194.47340899389,8068.666823943476,11875.168904682268,10872.9166833063,0.0,0.0,0.0,2019-03-17T21:24:18.789430,10,EyesOpen
-17184.82580004046,-9300.784385297822,4308.254040271526,-2583.392272399935,27318.03385234283,7610.903097498786,11992.783784006095,10843.47943585866,0.032,1.012,0.214,2019-03-17T21:24:18.796201,10,EyesOpen
-17091.686080895197,-9204.783642862278,4448.064201839471,-2411.708523238721,27441.728406158498,7707.127357378884,12108.074081906567,10993.906676042876,0.0,0.0,0.0,2019-03-17T21:24:18.796580,10,EyesOpen
-17231.1162628074,-9356.082601080252,4413.664867122754,-2322.145083206306,27337.301056063305,8170.769592615318,12009.748758047672,11044.37691502296,0.0,0.0,0.0,2019-03-17T21:24:18.803647,10,EyesOpen
-17338.56109840406,-9463.795657610377,4271.79834506492,-2476.2827129701036,27207.839752178166,8139.253632933335,11886.545942610019,10903.8738493769,0.0,0.0,0.0,2019-03-17T21:24:18.804027,10,EyesOpen
-17217.146422522834,-9333.08265603574,4280.716691102587,-2594.7916620721417,27290.854131085176,7663.094420801929,11962.899501669348,10830.113092674386,0.0,0.0,0.0,2019-03-17T21:24:18.811642,10,EyesOpen
-17094.301234996467,-9199.173355003995,4427.232376007125,-2449.9300062572966,27431.312493242323,7638.7757228345545,12091.042052631623,10962.390716360893,0.0,0.0,0.0,2019-03-17T21:24:18.811985,10,EyesOpen
-17190.950178021216,-9313.07784474824,4443.482094226133,-2312.2879639015155,27373.533233825357,8113.07974017617,12033.128682747923,11056.826836684566,0.0,0.0,0.0,2019-03-17T21:24:18.818804,10,EyesOpen
-17330.670932611338,-9469.182428024105,4298.396920966736,-2443.4703521097126,27216.355766815635,8195.490621982888,11883.103773963901,10929.06426537803,0.0,0.0,0.0,2019-03-17T21:24:18.825238,10,EyesOpen
-17252.998620629147,-9379.484877524957,4252.240568666526,-2609.61086864601,27250.39747362107,7720.873680218898,11909.92586731027,10804.252124339597,0.0,0.0,0.0,2019-03-17T21:24:18.825676,10,EyesOpen
-17094.278883252013,-9211.44446270996,4393.145965712782,-2500.9590388487627,27409.47483890949,7572.346338313382,12056.307441748077,10904.991436599665,0.0,0.0,0.0,2019-03-17T21:24:18.833274,10,EyesOpen
-17159.188349150223,-9272.26355937285,4454.9038356427955,-2322.9050425177866,27397.874283537185,8021.772864076241,12041.95762180777,11030.98822009423,0.026000000000000002,1.016,0.212,2019-03-17T21:24:18.833671,10,EyesOpen
-17323.026636007624,-9447.143607991173,4323.654392201232,-2405.204165602227,27236.8299647367,8226.693657242497,11889.07168973347,10937.73674222669,0.0,0.0,0.0,2019-03-17T21:24:18.841262,10,EyesOpen
-17279.396030830863,-9399.266171367904,4251.659423310688,-2584.4428043893345,27232.605485034645,7809.096015583995,11883.193180941724,10797.747766703102,0.0,0.0,0.0,2019-03-17T21:24:18.841634,10,EyesOpen
-17111.91440962725,-9222.776797148801,4372.180029413704,-2519.0639518575613,27392.196940445538,7548.54173046848,12031.854633313971,10868.736907093156,0.0,0.0,0.0,2019-03-17T21:24:18.848454,10,EyesOpen
-17135.87547968334,-9244.793265437278,4461.229379323648,-2325.408437896781,27418.5719989028,7935.0257438451945,12057.760305137672,11017.42071120986,0.0,0.0,0.0,2019-03-17T21:24:18.848794,10,EyesOpen
-17305.189943932288,-9425.641229825167,4350.744706481064,-2356.99145281213,27265.73077031741,8251.168817421058,11914.64208539034,10968.537446086102,0.0,0.0,0.0,2019-03-17T21:24:18.855938,10,EyesOpen
-17306.821621277526,-9426.267078669916,4241.26586213897,-2557.7324697652425,27219.015624405816,7910.639990644454,11868.977471468148,10810.33179883144,0.0,0.0,0.0,2019-03-17T21:24:18.856362,10,EyesOpen
-17128.141776101802,-9226.73305591739,4342.452209288145,-2543.628519013944,27378.27180364988,7556.364841027837,12016.655447084362,10848.396819638827,0.0,0.0,0.0,2019-03-17T21:24:18.863952,10,EyesOpen
-17105.320645012933,-9204.805994606733,4454.613262964876,-2351.6717376317665,27443.717711415018,7852.480751571746,12078.189799569822,11007.585943649525,0.0,0.0,0.0,2019-03-17T21:24:18.864343,10,EyesOpen
-17283.240530877178,-9404.38472084817,4360.624177530311,-2353.2363597436383,27286.763761849852,8230.33699158871,11932.232908276666,10982.060251481564,0.0,0.0,0.0,2019-03-17T21:24:18.871984,10,EyesOpen
-17325.597086619986,-9444.81902656782,4235.9014434696965,-2548.9929376832174,27206.722164955398,7987.261770637247,11855.812293983972,10826.581517050448,0.028,1.012,0.212,2019-03-17T21:24:18.872419,10,EyesOpen
-17139.45175879619,-9247.363716049638,4320.502796233034,-2574.496278106723,27358.93754469604,7580.460021550659,11999.489307342687,10838.226775911662,0.0,0.0,0.0,2019-03-17T21:24:18.877986,10,EyesOpen
-17069.356688184344,-9177.380404160072,4458.591873477921,-2383.9029531363194,27459.72156044502,7774.562570400545,12095.557105011596,11000.500440657192,0.0,0.0,0.0,2019-03-17T21:24:18.885506,10,EyesOpen
-17240.436940245265,-9358.250720292417,4391.849564534374,-2334.0585630009846,27319.419660499057,8209.013427378348,11964.531179014586,11012.212754751774,0.0,0.0,0.0,2019-03-17T21:24:18.885865,10,EyesOpen
-17331.877926811925,-9455.324346461815,4241.310565627881,-2518.9298413908296,27193.33347002667,8075.819382169174,11844.278793845033,10848.262709172095,0.0,0.0,0.0,2019-03-17T21:24:18.893553,10,EyesOpen
-17184.669337829273,-9286.03223395732,4276.201638722616,-2600.5137086527,27306.343889992702,7613.630010322334,11947.186225317268,10806.643760996314,0.0,0.0,0.0,2019-03-17T21:24:18.894000,10,EyesOpen
-17071.86008356334,-9160.460133607405,4424.371352716846,-2428.8299594914865,27436.38633923368,7688.128374591873,12067.57272095355,10954.321736612528,0.0,0.0,0.0,2019-03-17T21:24:18.901587,10,EyesOpen
-17212.072576531482,-9320.006885529387,4407.786358331008,-2320.60281283889,27342.12903286565,8159.124333754103,11980.22210362221,11016.236068753728,0.0,0.0,0.0,2019-03-17T21:24:18.902078,10,EyesOpen
-17331.09561575599,-9461.269910486926,4264.824600794864,-2469.4207274223245,27203.48116200938,8152.396458673055,11848.905604947282,10878.437564186761,0.0,0.0,0.0,2019-03-17T21:24:18.908184,10,EyesOpen
-17207.937503807247,-9325.572469898758,4268.579693863356,-2590.2766096921696,27287.501369416877,7680.461726243702,11924.052169806024,10800.251162082097,0.0,0.0,0.0,2019-03-17T21:24:18.908601,10,EyesOpen
-17069.222577717614,-9178.207418704918,4418.179919502726,-2451.718145813721,27438.800327634854,7622.481301126636,12063.035316829124,10924.370399042416,0.022,1.016,0.21,2019-03-17T21:24:18.916197,10,EyesOpen
-17169.224282410658,-9288.60268456968,4431.278041753536,-2315.5066151030796,27376.260146648903,8080.692062460431,12007.267714413132,11013.84443209701,0.0,0.0,0.0,2019-03-17T21:24:18.916731,10,EyesOpen
-17323.294856941087,-9454.877311572709,4284.047101026428,-2438.5082648406346,27216.04284239326,8190.930866114005,11859.388573096821,10894.77668938359,0.0,0.0,0.0,2019-03-17T21:24:18.924361,10,EyesOpen
-17258.69831546525,-9371.527656498869,4238.024859192951,-2603.75471159872,27242.283790383794,7730.9319652237855,11884.288416420033,10769.98690008961,0.0,0.0,0.0,2019-03-17T21:24:18.924695,10,EyesOpen
-17094.81532511894,-9192.378424689583,4380.852506262363,-2500.333190004014,27411.240626721457,7563.45034402017,12039.141302006401,10872.492000161648,0.0,0.0,0.0,2019-03-17T21:24:18.931379,10,EyesOpen
-17146.291392599513,-9247.006088138352,4442.140989558815,-2321.6980483172,27406.680870852575,8002.215087677848,12036.95083104978,11014.023246052653,0.0,0.0,0.0,2019-03-17T21:24:18.931701,10,EyesOpen
-17318.600990605475,-9437.510006130935,4306.264735015004,-2403.460729534713,27239.042787437775,8230.024067166338,11881.717965807673,10928.706637466747,0.0,0.0,0.0,2019-03-17T21:24:18.937861,10,EyesOpen
-17285.69922276726,-9399.534392301368,4226.848986965298,-2591.394196914935,27228.80568847724,7830.464283283268,11873.336061636934,10786.258970053073,0.0,0.0,0.0,2019-03-17T21:24:18.945771,10,EyesOpen
-17104.560685701454,-9205.521250429303,4358.321947851414,-2526.618841483455,27402.925777784083,7560.030527118508,12037.375514194431,10864.981814024666,0.0,0.0,0.0,2019-03-17T21:24:18.946265,10,EyesOpen
-17111.512078227053,-9223.916736116022,4449.5617687179765,-2333.9691560231636,27434.598199677253,7930.600098443044,12070.38904075492,11017.688932143323,0.0,0.0,0.0,2019-03-17T21:24:18.953838,10,EyesOpen
-17290.862475736438,-9415.314723886815,4337.043087129961,-2364.121659293373,27270.91637503104,8256.265015156867,11919.023027303581,10965.184684417807,0.022,1.016,0.212,2019-03-17T21:24:18.954316,10,EyesOpen
-17317.773976060627,-9425.373008891704,4223.272707852449,-2562.8286675010527,27213.20417084744,7932.701162421842,11864.73064002164,10801.61461849387,0.0,0.0,0.0,2019-03-17T21:24:18.960427,10,EyesOpen
-17136.322514572443,-9233.975021120908,4325.084903846372,-2554.8937982194184,27370.09106517924,7565.149076598773,12011.246324926178,10832.415322353283,0.0,0.0,0.0,2019-03-17T21:24:18.960749,10,EyesOpen
-17095.61998791933,-9191.998445033842,4450.701707685198,-2352.3199382209705,27449.23859229548,7842.4001148224015,12084.291825806122,10995.538353388114,0.0,0.0,0.0,2019-03-17T21:24:18.969058,10,EyesOpen
-17275.238606362178,-9383.910522927108,4357.76315424003,-2340.697031104211,27296.196198009995,8234.539119546309,11943.40878050432,10977.545199101593,0.0,0.0,0.0,2019-03-17T21:24:18.969445,10,EyesOpen
-17328.05577851007,-9440.10280848775,4226.670173009655,-2535.0007456541953,27205.984557388372,8014.217974450347,11857.846302729406,10814.46687155567,0.0,0.0,0.0,2019-03-17T21:24:18.977124,10,EyesOpen
-17152.706343258185,-9247.654288727557,4300.028598311973,-2578.094908964027,27350.198012614015,7584.93037044172,11991.241513638677,10807.560182518982,0.0,0.0,0.0,2019-03-17T21:24:18.977484,10,EyesOpen
-17076.91157781024,-9164.8634272651,4438.2294342791365,-2399.8173951884983,27455.854708654253,7744.745343297165,12088.337491552531,10958.322698870028,0.0,0.0,0.0,2019-03-17T21:24:18.983697,10,EyesOpen
-17223.159041781313,-9333.395580458115,4400.432634405212,-2326.011934997074,27340.07267237576,8203.157270331058,11981.384394333887,10993.88432429842,0.0,0.0,0.0,2019-03-17T21:24:18.984189,10,EyesOpen
-17332.123796000935,-9449.624651625712,4250.139504687727,-2513.073684343539,27204.71050795442,8091.018568398782,11854.515892805564,10828.771988007067,0.0,0.0,0.0,2019-03-17T21:24:18.991103,10,EyesOpen
-17181.83066628345,-9294.905876506076,4279.844973068831,-2606.839252333552,27311.127163306137,7622.526004615546,11951.83538816397,10774.479600725128,0.024,1.014,0.214,2019-03-17T21:24:18.991430,10,EyesOpen
-17066.495664894064,-9171.256026179317,4430.562785930966,-2441.279881153093,27451.47376674101,7663.586159179946,12078.43566875883,10920.391788529372,0.0,0.0,0.0,2019-03-17T21:24:18.998209,10,EyesOpen
-17196.73927983514,-9305.433548144525,4420.415093948257,-2326.5707286084566,27366.872413977675,8133.509234608321,12000.808060265548,10992.967902775754,0.0,0.0,0.0,2019-03-17T21:24:18.998598,10,EyesOpen
-17325.977066275726,-9444.595509123268,4266.590388606834,-2481.334207217003,27212.868894680607,8152.3294034396895,11859.746201008105,10851.324898162473,0.0,0.0,0.0,2019-03-17T21:24:19.006224,10,EyesOpen
-17216.855849844917,-9326.824167588255,4253.380507633747,-2619.780912373175,27277.130159989618,7680.104098332417,11922.17462327178,10759.436876706706,0.0,0.0,0.0,2019-03-17T21:24:19.013251,10,EyesOpen
-17077.917406310728,-9176.19576170394,4400.857317549863,-2491.1242712884273,27433.122984543203,7597.827326992432,12067.907997120381,10883.354947966927,0.0,0.0,0.0,2019-03-17T21:24:19.013658,10,EyesOpen
-17174.49929410211,-9276.152762908074,4428.059390551972,-2342.440467171725,27387.27955666537,8056.462771470878,12027.674857100828,10989.995120763198,0.0,0.0,0.0,2019-03-17T21:24:19.020728,10,EyesOpen
-17327.27346745413,-9442.762666077931,4286.483441172057,-2452.366346402925,27225.05059540875,8201.346779030178,11878.342852394922,10878.884599075867,0.0,0.0,0.0,2019-03-17T21:24:19.021182,10,EyesOpen
-17253.84798691845,-9365.425630262569,4237.466065581568,-2621.5690519295995,27248.318761386727,7759.139866726383,11898.92880903826,10753.468960937138,0.0,0.0,0.0,2019-03-17T21:24:19.028742,10,EyesOpen
-17082.991252302083,-9186.276398453283,4376.091584693383,-2529.7927891961085,27416.448583179546,7559.091753851385,12053.424066713342,10850.296717917528,0.0,0.0,0.0,2019-03-17T21:24:19.029158,10,EyesOpen
-17127.650037723786,-9240.322916546216,4442.364507003368,-2348.184865496739,27419.019033791905,7977.248189121269,12056.57566268154,10987.849353295489,0.03,1.014,0.222,2019-03-17T21:24:19.036771,10,EyesOpen
-17296.316301383533,-9414.53241283088,4318.111159576316,-2407.3275813254813,27258.19823243597,8238.383619592621,11911.73635861115,10913.842727403966,0.0,0.0,0.0,2019-03-17T21:24:19.037225,10,EyesOpen
-17277.719649996718,-9393.544124787346,4227.787760232421,-2595.395159172435,27234.43832807998,7853.464228327779,11890.636311845341,10768.019946577544,0.0,0.0,0.0,2019-03-17T21:24:19.043363,10,EyesOpen
-17107.57817120292,-9206.996465563354,4340.507607520533,-2551.0269464286503,27396.734344569966,7548.944061868676,12042.047028785591,10827.43088333975,0.0,0.0,0.0,2019-03-17T21:24:19.043869,10,EyesOpen
-17108.15931655876,-9209.075177797697,4434.921376099751,-2357.1926185122275,27435.24640026646,7892.110394491005,12077.876875147447,10974.59476883349,0.0,0.0,0.0,2019-03-17T21:24:19.051396,10,EyesOpen
-17274.255129606143,-9394.95228468803,4334.137360350771,-2367.2956070060263,27282.27106121434,8247.100799930191,11935.183338544768,10938.541405027081,0.0,0.0,0.0,2019-03-17T21:24:19.051807,10,EyesOpen
-17293.634092048895,-9407.759834260922,4228.860643966275,-2555.0502604306057,27226.05642390924,7955.365831299524,11882.410869885787,10786.929522386734,0.0,0.0,0.0,2019-03-17T21:24:19.059447,10,EyesOpen
-17130.488709269608,-9225.995448350364,4310.980953095073,-2576.0609002185943,27369.532271567856,7554.554349726957,12016.543688362086,10795.579647490937,0.0,0.0,0.0,2019-03-17T21:24:19.059873,10,EyesOpen
-17086.14284827028,-9190.500878155337,4432.529739443033,-2390.496717750635,27447.00341784995,7793.7403671431985,12088.851581675004,10946.74449524218,0.0,0.0,0.0,2019-03-17T21:24:19.066590,10,EyesOpen
-17251.925736895293,-9370.588883231745,4363.57460779841,-2355.337423722437,27311.328329006235,8213.14850010258,11962.385411546877,10950.8348644775,0.0,0.0,0.0,2019-03-17T21:24:19.072982,10,EyesOpen
-17316.097595226478,-9437.130026475195,4237.466065581568,-2538.0852863890277,27215.349938315147,8024.455073410878,11874.654814559795,10796.764289947068,0.03,1.014,0.216,2019-03-17T21:24:19.073506,10,EyesOpen
-17155.545014804007,-9254.87390218662,4298.642790155744,-2593.8528888050187,27347.02406490136,7582.292864595994,11998.371720119922,10778.793487405,0.0,0.0,0.0,2019-03-17T21:24:19.080980,10,EyesOpen
-17081.359574956845,-9176.776907059779,4431.814483620463,-2423.1973198887495,27453.172499319615,7710.8600987029195,12096.786450956637,10924.63861997588,0.0,0.0,0.0,2019-03-17T21:24:19.081316,10,EyesOpen
-17231.965629096703,-9341.062228806286,4384.048805719472,-2350.6882608757332,27334.328274050746,8161.024232032804,11987.106440914446,10960.69198378229,0.0,0.0,0.0,2019-03-17T21:24:19.089078,10,EyesOpen
-17324.121871485935,-9439.365200920725,4248.485475598035,-2512.649001198888,27211.371327802102,8095.690082989941,11874.006613970592,10818.780758235545,0.0,0.0,0.0,2019-03-17T21:24:19.089606,10,EyesOpen
-17187.664471586286,-9292.916571249554,4275.888714300241,-2613.880051836974,27311.574198195245,7625.588193605923,11969.426211050299,10760.107429040365,0.0,0.0,0.0,2019-03-17T21:24:19.095625,10,EyesOpen
-17060.28187993549,-9170.987805245853,4422.11382652686,-2462.7152040857322,27453.28425804189,7634.685353599233,12101.882648692448,10898.509430707625,0.0,0.0,0.0,2019-03-17T21:24:19.096016,10,EyesOpen
-17187.172733208266,-9301.7455103094,4421.599736404388,-2339.467685159169,27379.612908317198,8106.329513350668,12036.503796160674,10979.579207847024,0.0,0.0,0.0,2019-03-17T21:24:19.103630,10,EyesOpen
-17328.435758165808,-9443.544977133868,4281.834278325353,-2470.91829430083,27235.891191469575,8163.840551834172,11903.220343973679,10855.303508675517,0.0,0.0,0.0,2019-03-17T21:24:19.103962,10,EyesOpen
-17228.635219172862,-9337.173025271062,4260.398955392713,-2615.1093977820155,27291.614090396655,7692.442261271747,11956.596309732951,10756.307632482962,0.0,0.0,0.0,2019-03-17T21:24:19.113058,10,EyesOpen
-17070.049592262458,-9171.233674434861,4416.212965990659,-2485.1563555188604,27462.984915135494,7590.115975155351,12117.037131433146,10883.377299711383,0.026000000000000002,1.012,0.214,2019-03-17T21:24:19.113370,10,EyesOpen
-17160.127122417347,-9270.207198882961,4446.946614616706,-2332.493940889113,27420.76246985942,8036.502663672289,12078.838000159027,10988.341091673505,0.0,0.0,0.0,2019-03-17T21:24:19.119439,10,EyesOpen
-17327.206412220767,-9451.435142926592,4299.782729122964,-2436.8318840064867,27250.48688059889,8204.990113376392,11918.687751136751,10878.348157208939,0.0,0.0,0.0,2019-03-17T21:24:19.119820,10,EyesOpen
-17269.449504548254,-9387.151525873129,4236.817864992365,-2608.359170956513,27264.14379646108,7780.239913492193,11932.344666998944,10753.066629536943,0.0,0.0,0.0,2019-03-17T21:24:19.125726,10,EyesOpen
-17096.312891997444,-9197.161698003018,4368.491991578579,-2521.9249751478405,27431.580714175787,7558.890588151287,12089.34332005302,10845.982831237654,0.0,0.0,0.0,2019-03-17T21:24:19.133257,10,EyesOpen
-17131.494537770097,-9238.06539035623,4443.169169803759,-2332.583347866934,27438.66621716812,7960.283215079691,12098.887514935437,10985.658882338868,0.0,0.0,0.0,2019-03-17T21:24:19.133664,10,EyesOpen
-17304.29587415408,-9431.072703727807,4324.1237788347935,-2379.142031567339,27275.29731694428,8245.826750496239,11949.220234062701,10920.235326318185,0.0,0.0,0.0,2019-03-17T21:24:19.141283,10,EyesOpen
-17296.383356616898,-9412.207831407528,4233.509806812979,-2565.9132082358847,27245.63655205209,7885.002539754217,11925.683847151262,10776.737126915114,0.0,0.0,0.0,2019-03-17T21:24:19.141628,10,EyesOpen
-17120.564534731453,-9220.139291303074,4348.017793657517,-2529.9939548962066,27412.80524883333,7560.119934096329,12080.313215293076,10828.414360095783,0.0,0.0,0.0,2019-03-17T21:24:19.149832,10,EyesOpen
-17111.62383694933,-9217.546488946258,4450.098210584904,-2338.014821769574,27458.469862755523,7877.335891406047,12124.994352459235,10974.728879300223,0.0,0.0,0.0,2019-03-17T21:24:19.150186,10,EyesOpen
-17285.36394660043,-9405.703473771033,4346.207302356637,-2350.8670748313757,27295.682107887522,8238.428323081533,11973.963615174725,10935.233346847695,0.026000000000000002,1.016,0.21,2019-03-17T21:24:19.156171,10,EyesOpen
-17308.162725944847,-9425.82004378081,4237.26489988147,-2541.9297864353402,27233.410147835035,7971.615549518532,11914.798547601527,10781.542751973004,0.0,0.0,0.0,2019-03-17T21:24:19.156457,10,EyesOpen
-17138.78120646253,-9235.807864166245,4320.435740999668,-2564.08036519055,27384.865568264195,7564.567931242935,12053.558177180073,10792.673920711746,0.0,0.0,0.0,2019-03-17T21:24:19.163927,10,EyesOpen
-17068.70848759514,-9167.031546477265,4460.961158390183,-2364.6581011603002,27487.460075314055,7793.405090976369,12150.184768460365,10959.775562259623,0.0,0.0,0.0,2019-03-17T21:24:19.164350,10,EyesOpen
-17234.960762853716,-9344.079714307753,4391.737805812098,-2327.107170475384,27351.807338214796,8223.854985696673,12025.417330910843,10969.7891437756,0.0,0.0,0.0,2019-03-17T21:24:19.171923,10,EyesOpen
-17314.0859382255,-9424.903622258142,4246.809094763887,-2521.5002920031898,27236.00295019185,8054.629928425543,11916.162004013302,10802.016949894065,0.0,0.0,0.0,2019-03-17T21:24:19.172381,10,EyesOpen
-17154.360372347877,-9257.7349254769,4298.37456922228,-2590.164850969893,27357.730550495453,7599.213135148661,12030.155900735368,10769.964548345155,0.0,0.0,0.0,2019-03-17T21:24:19.178513,10,EyesOpen
-17047.94371699616,-9154.447514348927,4451.305204785491,-2405.0253516465846,27491.326927104823,7710.52482253609,12151.83879755006,10928.058436877542,0.0,0.0,0.0,2019-03-17T21:24:19.178868,10,EyesOpen
-17180.73543080514,-9302.863097532165,4421.465625937656,-2310.365713878359,27391.4146293896,8177.810392118739,12058.855540615981,10981.479106125726,0.0,0.0,0.0,2019-03-17T21:24:19.185615,10,EyesOpen
-17302.775955531117,-9438.001744508952,4261.762411804487,-2487.4138817088465,27242.283790383794,8121.193423413447,11921.191146515745,10820.211269880685,0.0,0.0,0.0,2019-03-17T21:24:19.193386,10,EyesOpen
-17206.506992162107,-9315.31301919377,4263.707013572099,-2615.2435082487477,27319.196143054505,7634.819464065965,11993.700205528761,10733.218280460631,0.03,1.016,0.214,2019-03-17T21:24:19.193807,10,EyesOpen
-17073.201188230658,-9159.76722952929,4419.811596847963,-2460.1000499844613,27474.563118763344,7621.8107487929765,12137.399570631931,10869.809790827012,0.0,0.0,0.0,2019-03-17T21:24:19.201463,10,EyesOpen
-17176.712116803184,-9280.35489086567,4425.623050406343,-2331.1528362217946,27405.339766185258,8088.559876508699,12074.077078590046,10955.305213368561,0.0,0.0,0.0,2019-03-17T21:24:19.201828,10,EyesOpen
-17316.030539993113,-9446.58481437979,4284.605894637811,-2461.239988951682,27251.090377699184,8172.781249616296,11930.17654778678,10829.733113018647,0.0,0.0,0.0,2019-03-17T21:24:19.209571,10,EyesOpen
-17228.478756961675,-9352.23810103394,4251.480609355046,-2618.3280489835797,27291.323517718738,7707.507337034624,11968.286272083078,10719.606068087349,0.0,0.0,0.0,2019-03-17T21:24:19.209969,10,EyesOpen
-17064.931042782195,-9178.833267549666,4398.532736126511,-2503.820062139042,27456.860537154742,7566.959567899653,12120.881631479459,10832.281211886551,0.0,0.0,0.0,2019-03-17T21:24:19.216158,10,EyesOpen
-17132.366255803856,-9253.219873096928,4449.293547784513,-2334.1256182343504,27436.721615400507,8016.140224473504,12102.039110903635,10958.412105847849,0.0,0.0,0.0,2019-03-17T21:24:19.216506,10,EyesOpen
-17304.966426487736,-9431.564442105824,4302.353179735324,-2428.0252966910957,27262.35565690466,8212.030912879814,11938.871376379893,10857.829255798968,0.0,0.0,0.0,2019-03-17T21:24:19.224117,10,EyesOpen
-17260.26293757712,-9378.90373216912,4234.158007402183,-2604.782891843664,27264.188499949993,7796.422576477836,11942.760579915117,10725.663390834736,0.0,0.0,0.0,2019-03-17T21:24:19.224485,10,EyesOpen
-17077.313909210436,-9183.974168774386,4373.767003270031,-2523.0202106261504,27442.890696870174,7558.644718962279,12113.125576153467,10817.730226246147,0.0,0.0,0.0,2019-03-17T21:24:19.231324,10,EyesOpen
-17109.366310759346,-9216.272439512306,4453.428620508745,-2342.0604875159847,27457.307572043846,7941.105418337038,12127.274230393676,10958.590919803491,0.032,1.016,0.214,2019-03-17T21:24:19.231687,10,EyesOpen
-17280.334804097987,-9394.795822476843,4341.8487121878525,-2382.785365913554,27300.6441951566,8246.363192363166,11978.232798365689,10902.44333773176,0.0,0.0,0.0,2019-03-17T21:24:19.238848,10,EyesOpen
-17282.145295398866,-9394.326435843283,4238.516597570968,-2579.3019031646136,27256.454796368456,7906.32610396458,11937.753789157128,10751.099676024876,0.0,0.0,0.0,2019-03-17T21:24:19.239261,10,EyesOpen
-17104.113650812345,-9209.522212686803,4340.708773220632,-2563.74508902372,27414.347519200746,7555.649585205268,12090.527962509152,10792.405699778283,0.0,0.0,0.0,2019-03-17T21:24:19.245846,10,EyesOpen
-17083.4829906801,-9192.870163067599,4451.081687340938,-2375.0963658209284,27476.261851341947,7850.290280615125,12147.413152147908,10945.179873130308,0.0,0.0,0.0,2019-03-17T21:24:19.246329,10,EyesOpen
-17245.622544958896,-9368.845447164233,4371.3753666133125,-2361.7076708921995,27336.13876535163,8243.457465583977,12017.61657209594,10930.07009387852,0.0,0.0,0.0,2019-03-17T21:24:19.254019,10,EyesOpen
-17290.683661780797,-9415.359427375726,4248.731344787043,-2555.296129619614,27255.96305799044,7994.906067240962,11941.97826885918,10767.595263432893,0.0,0.0,0.0,2019-03-17T21:24:19.260375,10,EyesOpen
-17129.125252857837,-9242.267518313827,4319.161691565716,-2596.199821972826,27392.80043754583,7560.8798934078095,12066.72335466425,10756.061763293954,0.0,0.0,0.0,2019-03-17T21:24:19.260717,10,EyesOpen
-17056.19151070017,-9173.066517480198,4457.764858933075,-2403.57248825699,27493.606805039264,7752.523750367613,12160.220701720798,10912.143994825363,0.0,0.0,0.0,2019-03-17T21:24:19.268470,10,EyesOpen
-17222.779062125574,-9347.387772487136,4397.169279714737,-2346.7990573405095,27363.45259707601,8191.2437905363795,12039.342467706498,10927.54434675507,0.0,0.0,0.0,2019-03-17T21:24:19.268877,10,EyesOpen
-17322.2890284406,-9442.986183522486,4248.686641298133,-2535.783056710131,27240.495650827368,8050.941890590417,11922.88987909435,10762.767286630546,0.034,1.014,0.216,2019-03-17T21:24:19.276405,10,EyesOpen
-17168.956061477194,-9278.343233864694,4289.7244441180765,-2617.8586623500187,27357.88701270664,7588.305483854471,12032.592240880997,10720.969524499122,0.0,0.0,0.0,2019-03-17T21:24:19.276772,10,EyesOpen
-17052.369362398313,-9159.543712084736,4442.208044792181,-2446.689003311277,27490.991650937995,7663.988490580141,12159.326631942587,10870.05566001602,0.0,0.0,0.0,2019-03-17T21:24:19.283535,10,EyesOpen
-17176.801523781007,-9293.944751494499,4430.965117331161,-2335.6455368573115,27406.323242941293,8143.165188213014,12082.660148460884,10940.083675394497,0.0,0.0,0.0,2019-03-17T21:24:19.283898,10,EyesOpen
-17309.79440329008,-9438.560538120335,4281.744871347531,-2491.9959893221844,27260.768683048333,8134.224490430891,11946.292155539055,10798.641836481314,0.0,0.0,0.0,2019-03-17T21:24:19.291069,10,EyesOpen
-17187.5080093751,-9314.865984304666,4273.832353810353,-2623.781874630675,27328.382710025635,7651.6279758963565,12009.011150480646,10709.346617382362,0.0,0.0,0.0,2019-03-17T21:24:19.291406,10,EyesOpen
-17043.13809193827,-9159.677822551468,4426.628878906832,-2477.2214862372266,27485.023735168426,7609.405530620281,12155.705649340827,10846.966307993687,0.0,0.0,0.0,2019-03-17T21:24:19.299104,10,EyesOpen
-17148.39245657831,-9261.847646456677,4452.243978052614,-2329.4317518987364,27435.067586310815,8084.916542162484,12112.052692419613,10952.779466245112,0.0,0.0,0.0,2019-03-17T21:24:19.299507,10,EyesOpen
-17302.507734597653,-9426.401189136648,4302.800214624431,-2452.299291169559,27273.956212276964,8196.317636527734,11961.714859213216,10832.460025842194,0.0,0.0,0.0,2019-03-17T21:24:19.307129,10,EyesOpen
-17219.18043126827,-9333.954374069497,4265.115173472783,-2608.448577934334,27309.763706894366,7746.801703787054,11994.594275306974,10720.857765776846,0.0,0.0,0.0,2019-03-17T21:24:19.307602,10,EyesOpen
-17058.270222934512,-9169.490238367349,4401.706683839165,-2510.8832133869187,27466.516490759434,7572.92748366922,12141.847567778537,10822.960534448688,0.032,1.012,0.214,2019-03-17T21:24:19.313369,10,EyesOpen
