eeg1,eeg2,eeg3,eeg4,eeg5,eeg6,eeg7,eeg8,accx,accy,accz,iso_utc,session_id,command_name
0.0,0.0,0.0,0.0,0.0,0.0,0.0,0.0,0.01,1.02,0.188,2019-03-17T21:25:33.849269,12,EyesOpen
-18587.800096011175,-9664.268453630026,6508.358598751855,-2129.249528557006,28951.34287492548,8666.508932889574,15772.64258535416,10873.073145517486,0.0,0.0,0.0,2019-03-17T21:25:33.857227,12,EyesOpen
-18439.049236661107,-9515.562297768867,6626.3981612203315,-2079.0251587659313,29099.624347641988,8373.254045635944,15915.649046379216,10935.769788714622,0.0,0.0,0.0,2019-03-17T21:25:33.863274,12,EyesOpen
-18480.46701913679,-9553.761429042986,6705.769205781127,-1876.0936708561983,29104.22880699978,8809.35893170344,15922.399273204717,11084.207723642317,0.0,0.0,0.0,2019-03-17T21:25:33.864010,12,EyesOpen
-18627.653256374986,-9710.625971630332,6605.9686667881815,-1897.908973444578,28957.087273250494,9156.883854494556,15785.651300627149,11043.728714433755,0.0,0.0,0.0,2019-03-17T21:25:33.871986,12,EyesOpen
-18616.030349258228,-9705.842698316896,6503.62002892733,-2115.8384818838217,28923.000862956153,8757.480532822674,15753.978878733978,10880.58333165447,0.0,0.0,0.0,2019-03-17T21:25:33.872744,12,EyesOpen
-18457.5564810701,-9535.321239867359,6596.044492250025,-2118.967726107565,29070.768245550185,8362.79342923086,15891.777383300947,10903.695035421257,0.0,0.0,0.0,2019-03-17T21:25:33.878344,12,EyesOpen
-18445.732408253243,-9518.088044892316,6700.3600836229425,-1911.1188544176646,29115.404679227435,8708.083177576444,15933.0610553099,11061.923034420375,0.0,0.0,0.0,2019-03-17T21:25:33.878931,12,EyesOpen
-18600.518238606244,-9683.334491650403,6621.9948675626365,-1882.3074558147737,28975.6392211484,9147.250252634318,15803.577399680305,11060.291357075139,0.014,1.028,0.176,2019-03-17T21:25:33.886430,12,EyesOpen
-18631.609515143577,-9726.808634615974,6502.1895172821905,-2086.1777169916295,28913.568426796013,8867.115839375954,15748.368590875698,10905.952561611242,0.0,0.0,0.0,2019-03-17T21:25:33.887085,12,EyesOpen
-18478.388306902445,-9553.515559853979,6570.228227404145,-2139.8889589177325,29051.99278020773,8395.382272646699,15876.555845326882,10893.815564372011,0.0,0.0,0.0,2019-03-17T21:25:33.893473,12,EyesOpen
-18431.784919713133,-9497.278570804427,6696.47088008772,-1944.557064122804,29128.167525311415,8624.353542846864,15948.304945028418,11049.227243569761,0.0,0.0,0.0,2019-03-17T21:25:33.894051,12,EyesOpen
-18564.82250271112,-9644.934194676185,6653.93551038927,-1859.4863247259052,29010.172666331848,9136.834339718145,15843.698780977582,11093.707215035822,0.0,0.0,0.0,2019-03-17T21:25:33.901115,12,EyesOpen
-18625.619247629555,-9718.136157767316,6529.525700751031,-2042.904739726155,28917.994072198162,8984.574256488593,15756.683439813072,10946.83390222,0.0,0.0,0.0,2019-03-17T21:25:33.902048,12,EyesOpen
-18500.695347868845,-9573.229798463559,6552.212721373167,-2155.311662591894,29017.88401816893,8451.351040762787,15849.08555139131,10883.243189244651,0.0,0.0,0.0,2019-03-17T21:25:33.909044,12,EyesOpen
-18412.629474714933,-9472.378727481215,6692.089938174479,-1973.7484423814349,29131.72145267981,8551.956242556125,15958.9667271336,11031.882289872443,0.0,0.0,0.0,2019-03-17T21:25:33.909634,12,EyesOpen
-18532.56893546211,-9614.312304772415,6683.439813070276,-1841.135542528098,29042.448585325314,9096.288275276218,15877.114638938267,11114.717854823812,0.0,0.0,0.0,2019-03-17T21:25:33.916051,12,EyesOpen
-18623.83110807313,-9711.810614086464,6555.610186530374,-1989.7299396669794,28930.28753164858,9082.877228603033,15768.015774251911,10987.759946317667,0.0,0.0,0.0,2019-03-17T21:25:33.923159,12,EyesOpen
-18511.692406140854,-9585.813830591898,6555.811352230472,-2140.537159506936,29017.392279790914,8536.533538881962,15846.559804267861,10895.626055672892,0.008,1.034,0.17200000000000001,2019-03-17T21:25:33.924173,12,EyesOpen
-18413.16591658186,-9485.521553220935,6683.573923537007,-2014.1380446121748,29145.020740630716,8478.240189342521,15963.414724280206,11010.670484384356,0.0,0.0,0.0,2019-03-17T21:25:33.930640,12,EyesOpen
-18518.688502155364,-9598.420214464692,6695.08507193149,-1855.8876938686008,29072.75755080671,9006.322503843607,15897.052394992399,11112.169755955907,0.0,0.0,0.0,2019-03-17T21:25:33.931249,12,EyesOpen
-18651.144939797516,-9737.693934165709,6558.135933653824,-1974.351939481728,28928.09706069196,9117.433025530938,15758.829207280782,10996.454774910782,0.0,0.0,0.0,2019-03-17T21:25:33.938816,12,EyesOpen
-18566.744752734274,-9646.320002832414,6524.876537904327,-2156.8762847037656,28976.55564267107,8591.205905819645,15802.75038513546,10871.307357705517,0.0,0.0,0.0,2019-03-17T21:25:33.939518,12,EyesOpen
-18421.234896330225,-9504.766405196953,6652.236777810666,-2069.45861213906,29117.86337111752,8396.097528469269,15936.972610589579,10954.16527440134,0.0,0.0,0.0,2019-03-17T21:25:33.946668,12,EyesOpen
-18496.269702466692,-9561.338670413335,6704.875136002915,-1876.9877406344106,29086.861501558007,8891.322778621052,15909.502316654005,11084.498296320236,0.0,0.0,0.0,2019-03-17T21:25:33.947275,12,EyesOpen
-18634.604648900586,-9711.452986175178,6588.176678201757,-1936.3763256521615,28942.804508543555,9149.552482313215,15773.782524321381,11014.403225708393,0.0,0.0,0.0,2019-03-17T21:25:33.953267,12,EyesOpen
-18585.162590165448,-9682.149849194271,6520.2720785465335,-2135.955051893598,28952.795738315075,8691.408776212786,15784.936044804579,10872.469648417193,0.0,0.0,0.0,2019-03-17T21:25:33.953810,12,EyesOpen
-18439.51862329467,-9517.462196047569,6634.020106079592,-2093.643199639702,29106.91101633442,8382.41826086262,15931.049398308922,10928.192547344273,0.0,0.0,0.0,2019-03-17T21:25:33.961299,12,EyesOpen
-18475.527283612166,-9556.443638377625,6712.742950051183,-1891.7175402304579,29113.214208270816,8803.100443255955,15941.465311225094,11071.131953135962,0.002,1.026,0.17400000000000002,2019-03-17T21:25:33.961754,12,EyesOpen
-18621.104195249583,-9712.369407697846,6615.535213415053,-1901.7087700019802,28968.263145478148,9173.334738413661,15806.12549854821,11034.743313162722,0.0,0.0,0.0,2019-03-17T21:25:33.969431,12,EyesOpen
-18613.3928434125,-9702.4899366486,6514.997066855081,-2113.111569060274,28935.11550845093,8798.853611809447,15772.195550465054,10875.308319963016,0.0,0.0,0.0,2019-03-17T21:25:33.970237,12,EyesOpen
-18456.863576991986,-9537.757580012987,6604.582858631952,-2131.0376681134308,29079.351315421023,8378.37259511621,15904.473174151562,10883.690224133758,0.0,0.0,0.0,2019-03-17T21:25:33.976433,12,EyesOpen
-18436.59054477102,-9515.696408235599,6718.152072209367,-1924.0828662017425,29133.44253700287,8698.337816993931,15952.864700897302,11038.207833553295,0.0,0.0,0.0,2019-03-17T21:25:33.982910,12,EyesOpen
-18598.484229860813,-9687.290750418992,6639.205710793222,-1886.9789704059328,28990.74900040019,9148.501950323815,15817.569591709327,11034.89977537391,0.0,0.0,0.0,2019-03-17T21:25:33.983387,12,EyesOpen
-18630.40252094299,-9724.238184003614,6522.976639625626,-2083.6072663792693,28922.464421089226,8889.266418131163,15753.487140355963,10877.38703219736,0.0,0.0,0.0,2019-03-17T21:25:33.990973,12,EyesOpen
-18480.5117226257,-9558.052963978405,6582.097003709913,-2145.119267120274,29055.479652342758,8399.13736571519,15879.103944194789,10854.588252852947,0.0,0.0,0.0,2019-03-17T21:25:33.991674,12,EyesOpen
-18433.617762758466,-9501.25718131747,6708.563173838041,-1948.1109914911976,29140.48333650629,8604.214621092633,15962.140674846254,11012.860955340977,0.0,0.0,0.0,2019-03-17T21:25:33.998937,12,EyesOpen
-18573.830255726607,-9663.10616291835,6667.257150084633,-1853.0490223227766,29024.522486272155,9125.636115746036,15856.439275317107,11065.52166527768,0.0,0.0,0.0,2019-03-17T21:25:33.999478,12,EyesOpen
-18652.128416553547,-9749.428600004745,6526.195290827191,-2040.7366205139901,28912.49554306216,8988.284646068174,15753.375381633687,10912.546326225558,0.0,1.022,0.17200000000000001,2019-03-17T21:25:34.008492,12,EyesOpen
-18509.792507862152,-9595.916819085696,6554.693765007707,-2155.5798835253577,29021.46029728178,8453.67562218614,15858.965022440556,10852.598947596425,0.0,0.0,0.0,2019-03-17T21:25:34.009166,12,EyesOpen
-18412.137736336917,-9485.387442754203,6704.94219123628,-1978.5093639504153,29146.987694142783,8528.419855644686,15977.675137242692,11002.623856380445,0.0,0.0,0.0,2019-03-17T21:25:34.014564,12,EyesOpen
-18535.564069219123,-9609.126700058783,6695.219182398222,-1847.2152170199415,29052.75273951921,9062.9394725489,15889.609264088782,11080.966720696297,0.0,0.0,0.0,2019-03-17T21:25:34.015018,12,EyesOpen
-18629.530802909234,-9714.381064698824,6561.287529622023,-1994.580268213781,28932.56740958302,9073.288330231706,15773.871931299202,10951.661879022346,0.0,0.0,0.0,2019-03-17T21:25:34.021998,12,EyesOpen
-18521.370711490003,-9603.136432544761,6551.072782405947,-2146.862703187788,29010.06090760957,8535.460655148108,15845.79984495638,10853.33655516345,0.0,0.0,0.0,2019-03-17T21:25:34.022840,12,EyesOpen
-18407.35446302348,-9484.202800298071,6693.006359697147,-2010.7852829438787,29144.841926675075,8464.046831613401,15973.316547073908,10968.246873408185,0.0,0.0,0.0,2019-03-17T21:25:34.028780,12,EyesOpen
-18505.94800781584,-9594.955694074119,6715.760435552649,-1844.2200832629305,29083.575795123077,8987.368224545506,15914.48675566754,11077.099868905529,0.0,0.0,0.0,2019-03-17T21:25:34.029322,12,EyesOpen
-18638.046817546703,-9744.377105757845,6585.293303167022,-1949.2062269695077,28944.6820550778,9134.979144928355,15781.180951736087,10976.874646767932,0.0,0.0,0.0,2019-03-17T21:25:34.035519,12,EyesOpen
-18563.77197072172,-9657.629985526799,6545.350735825388,-2137.3408600498274,28982.92588984083,8623.75004574657,15819.491841732484,10851.995450496132,0.0,0.0,0.0,2019-03-17T21:25:34.043158,12,EyesOpen
-18420.676102718844,-9499.424338272136,6672.308644331532,-2060.7190800570347,29131.252066046247,8411.922563543625,15959.279651555975,10936.708561981746,0.002,1.024,0.17400000000000002,2019-03-17T21:25:34.043657,12,EyesOpen
-18469.045277720128,-9555.571920343868,6737.016944529646,-1864.716632928447,29117.595150184054,8897.268342646163,15946.717971172093,11076.7645927387,0.0,0.0,0.0,2019-03-17T21:25:34.051251,12,EyesOpen
-18620.679512104933,-9717.532660667022,6618.664457638795,-1927.7932557813235,28964.82097683203,9163.254101664317,15802.660978157637,11006.669522126856,0.0,0.0,0.0,2019-03-17T21:25:34.051930,12,EyesOpen
-18591.39872686848,-9681.38988988279,6535.963003154159,-2144.4934182755255,28957.26608720614,8709.312523521487,15795.486068187485,10853.425962141271,0.0,0.0,0.0,2019-03-17T21:25:34.058245,12,EyesOpen
-18428.320399322558,-9499.826669672331,6655.991870879158,-2104.7967201229003,29119.204475784838,8385.636912064185,15947.388523505751,10911.093462835965,0.0,0.0,0.0,2019-03-17T21:25:34.058709,12,EyesOpen
-18443.899565207907,-9515.942277424607,6742.493121921197,-1897.0149036663656,29138.941066138872,8787.051890737044,15965.381677792273,11062.14655186493,0.0,0.0,0.0,2019-03-17T21:25:34.065681,12,EyesOpen
-18591.599892568578,-9692.92339002173,6653.332013288977,-1890.555249518782,28994.995831846696,9173.513552369304,15834.89219366219,11041.270022543673,0.0,0.0,0.0,2019-03-17T21:25:34.065989,12,EyesOpen
-18600.67470081743,-9696.67848309022,6546.513026537064,-2102.5391939329143,28946.35843591195,8814.186908505788,15792.60269315275,10882.907913077821,0.0,0.0,0.0,2019-03-17T21:25:34.074170,12,EyesOpen
-18452.013248445182,-9536.729399768043,6627.649858909829,-2124.9579936215873,29087.37559168048,8379.758403272439,15923.338046471841,10892.96619808271,0.0,0.0,0.0,2019-03-17T21:25:34.074847,12,EyesOpen
-18422.531297508634,-9513.21536460106,6742.336659710009,-1915.0304096973432,29146.13832785348,8683.272741231054,15977.16104712022,11052.200025582317,0.0,0.0,0.0,2019-03-17T21:25:34.082124,12,EyesOpen
-18575.372526094023,-9668.783506009997,6675.616702510918,-1861.810906149257,29010.619701220956,9152.547616070226,15853.80176947138,11068.025060656675,0.004,1.028,0.166,2019-03-17T21:25:34.082766,12,EyesOpen
-18616.030349258228,-9710.804785585975,6549.709325994173,-2061.6578533241577,28932.120374693917,8915.462662632783,15778.297576701354,10911.629904702892,0.0,0.0,0.0,2019-03-17T21:25:34.088720,12,EyesOpen
-18469.69347830933,-9550.207501674593,6602.817070819983,-2135.9103484046877,29058.22891691076,8416.99640953498,15895.443069391618,10884.271369489596,0.0,0.0,0.0,2019-03-17T21:25:34.089658,12,EyesOpen
-18411.221314814247,-9489.54486722289,6731.4066566713645,-1946.5016658904156,29147.14415635397,8592.055272108946,15976.73636397557,11039.414827753882,0.0,0.0,0.0,2019-03-17T21:25:34.095894,12,EyesOpen
-18554.294831072668,-9634.76415094902,6696.180307409801,-1844.108324540654,29033.217314865273,9119.04235113172,15869.202121401087,11095.115374936508,0.0,0.0,0.0,2019-03-17T21:25:34.096681,12,EyesOpen
-18632.63769538852,-9713.643457131799,6564.260311634578,-2019.7930359593674,28927.24769440266,9014.167966147419,15770.295652186353,10952.667707522834,0.0,0.0,0.0,2019-03-17T21:25:34.103778,12,EyesOpen
-18499.95774030182,-9569.36294667279,6582.767556043573,-2143.733458964045,29027.94230317382,8476.58616025283,15869.157417912176,10885.835991601467,0.0,0.0,0.0,2019-03-17T21:25:34.111507,12,EyesOpen
-18404.605198455476,-9476.245579271983,6718.889679776393,-1982.3091605078175,29145.35601679755,8517.378093883764,15980.849084955345,11021.913411845377,0.0,0.0,0.0,2019-03-17T21:25:34.112299,12,EyesOpen
-18520.47664171179,-9603.80698487842,6723.471787389731,-1832.9548040574557,29067.013152481697,9066.403992939471,15909.547020142916,11118.897631036954,0.0,0.0,0.0,2019-03-17T21:25:34.117997,12,EyesOpen
-18623.16055573947,-9716.97386705564,6598.59259111793,-1963.5783986542701,28949.26416269114,9112.985028384332,15795.731937376493,11005.12725175944,0.0,0.0,0.0,2019-03-17T21:25:34.118550,12,EyesOpen
-18523.04709232415,-9612.993551849551,6574.58681757293,-2132.155255336196,29012.206675077283,8568.720050897606,15852.907699693169,10893.122660293897,-0.002,1.026,0.178,2019-03-17T21:25:34.125843,12,EyesOpen
-18395.709204162267,-9473.83159087081,6712.027694228613,-2011.0088003884318,29151.10041512256,8465.67850895864,15983.464239056617,11002.735615102723,0.0,0.0,0.0,2019-03-17T21:25:34.126133,12,EyesOpen
-18483.573911616077,-9560.489304124034,6742.873101576937,-1834.653536636059,29098.640870885956,8984.842477422057,15934.469215210584,11117.936506025375,0.0,0.0,0.0,2019-03-17T21:25:34.134322,12,EyesOpen
-18621.14889873849,-9712.436462931211,6608.941448800737,-1940.0196599983765,28949.599438857967,9147.496121823326,15790.456925685041,11012.011589051675,0.0,0.0,0.0,2019-03-17T21:25:34.135173,12,EyesOpen
-18553.087836872084,-9645.917671432218,6554.716116752162,-2141.610043240791,28981.405971217868,8641.22910991062,15818.351902765264,10874.838933329456,0.0,0.0,0.0,2019-03-17T21:25:34.141012,12,EyesOpen
-18414.84229741601,-9497.189163826604,6680.064699657524,-2069.168039461141,29133.733109680787,8407.340455930287,15960.911328901211,10954.992288946187,0.0,0.0,0.0,2019-03-17T21:25:34.141710,12,EyesOpen
-18472.19687368833,-9556.018955232974,6740.749685853682,-1872.7632609323575,29122.557237453133,8873.441383056806,15950.562471218405,11093.930732480376,0.0,0.0,0.0,2019-03-17T21:25:34.148966,12,EyesOpen
-18615.00216901328,-9697.863125546352,6627.202824020723,-1913.5104910743823,28974.87926183692,9175.368747159095,15811.825193384313,11038.856034142498,0.0,0.0,0.0,2019-03-17T21:25:34.149608,12,EyesOpen
-18586.05665994366,-9669.05172694346,6542.176788112734,-2121.1134935752743,28964.284534965103,8746.572881528484,15802.169239779621,10890.73102363718,0.0,0.0,0.0,2019-03-17T21:25:34.157016,12,EyesOpen
-18432.857803446987,-9514.332951823826,6644.860702140415,-2103.9473538335983,29114.063574560118,8386.508630097942,15944.236927537553,10928.7289892112,0.0,0.0,0.0,2019-03-17T21:25:34.157791,12,EyesOpen
-18439.36216108348,-9525.061789162373,6733.418313672342,-1900.8817554571337,29135.81182191513,8768.768163772604,15965.20286383663,11079.446802073337,0.0,1.014,0.176,2019-03-17T21:25:34.164239,12,EyesOpen
-18588.001261711273,-9685.860238773852,6641.664402683306,-1892.1198716306535,28990.391372488903,9174.00529074732,15827.203193569565,11059.531397763658,0.0,0.0,0.0,2019-03-17T21:25:34.170565,12,EyesOpen
-18594.840895514597,-9687.670730074731,6539.069895633447,-2094.872545584744,28948.727720824212,8848.005097866666,15788.735841361982,10912.568677970014,0.0,0.0,0.0,2019-03-17T21:25:34.171277,12,EyesOpen
-18441.954963440297,-9524.212422873072,6613.88118432536,-2131.3952960247157,29083.687553845353,8401.305484927356,15916.29724696842,10913.194526814763,0.0,0.0,0.0,2019-03-17T21:25:34.178635,12,EyesOpen
-18416.630436972435,-9503.872335418742,6727.584508369507,-1930.386058138139,29144.618409230523,8675.136706249323,15971.461352284117,11064.605243755013,0.0,0.0,0.0,2019-03-17T21:25:34.179476,12,EyesOpen
-18566.05184865616,-9655.081886658894,6665.93839716177,-1863.8896183836007,29019.56039900308,9161.153037685519,15852.28185084842,11089.57214231159,0.0,0.0,0.0,2019-03-17T21:25:34.186704,12,EyesOpen
-18618.31022719267,-9703.20519247117,6538.421695044243,-2058.4615538670487,28938.512973608136,8944.452875191317,15775.257739455432,10935.412160803338,0.0,0.0,0.0,2019-03-17T21:25:34.187409,12,EyesOpen
-18472.353335899512,-9553.493208109523,6586.232076434145,-2145.5886537538354,29067.191966437338,8431.457988197564,15894.347833913307,10897.101270806941,0.0,0.0,0.0,2019-03-17T21:25:34.193789,12,EyesOpen
-18402.325320521035,-9480.738279907499,6724.209394956755,-1959.3315672077617,29171.26168862125,8584.768603416516,15991.935550205179,11050.702458703812,0.0,0.0,0.0,2019-03-17T21:25:34.194430,12,EyesOpen
-18544.393008278967,-9638.720409717609,6690.6147230404285,-1856.3570805021623,29055.4573005983,9108.805252171189,15884.803639030892,11105.553639597136,0.0,0.0,0.0,2019-03-17T21:25:34.201238,12,EyesOpen
-18616.790308569707,-9723.947611325695,6559.320576109955,-2022.229376104996,28946.760767312142,9032.675210556414,15782.253835469943,10966.056402451564,0.006,1.016,0.178,2019-03-17T21:25:34.201880,12,EyesOpen
-18492.26874020919,-9583.533952657455,6573.290416394522,-2155.7810492254557,29042.8062132366,8490.108965648289,15874.119505181254,10888.026462558088,0.0,0.0,0.0,2019-03-17T21:25:34.209397,12,EyesOpen
-18390.523599448636,-9469.137724535194,6717.660333831351,-1997.1507188261414,29171.99929618827,8502.178907654155,15993.187247894675,11021.75694963419,0.0,0.0,0.0,2019-03-17T21:25:34.210150,12,EyesOpen
-18508.786679361663,-9596.766185374998,6712.161804695345,-1848.4222112205282,29086.794446324642,9036.542062347182,15913.592685889327,11110.314561166117,0.0,0.0,0.0,2019-03-17T21:25:34.217143,12,EyesOpen
-18623.674645861942,-9719.365503712357,6574.005672217092,-1976.967093582999,28951.029950503107,9103.776109668745,15785.31602446032,10994.800745821089,0.0,0.0,0.0,2019-03-17T21:25:34.217775,12,EyesOpen
-18533.217136051313,-9619.162633319216,6543.964927669159,-2149.7237264780674,29007.378698274937,8570.418783476209,15837.328533807819,10881.410346199316,0.0,0.0,0.0,2019-03-17T21:25:34.223504,12,EyesOpen
-18394.05517507257,-9469.227131513017,6685.630284026895,-2029.2478238639624,29157.42595880341,8447.551244205386,15976.892826186757,10989.41397540736,0.0,0.0,0.0,2019-03-17T21:25:34.230810,12,EyesOpen
-18462.004478216706,-9558.008260489496,6731.965450282747,-1841.8284466062125,29120.970263596806,8965.910549868411,15944.77336940448,11119.746997326256,0.0,0.0,0.0,2019-03-17T21:25:34.231507,12,EyesOpen
-18619.53957313771,-9720.751311868586,6595.485698638642,-1944.8476368007227,28965.20095648777,9152.391153859038,15797.207152510544,11020.393493222415,0.0,0.0,0.0,2019-03-17T21:25:34.238866,12,EyesOpen
-18561.425037553912,-9647.325831332902,6539.472227033642,-2145.342784564827,28997.566282459054,8663.223226454644,15826.867917402735,10889.568732925503,0.0,0.0,0.0,2019-03-17T21:25:34.239720,12,EyesOpen
-18417.859782917476,-9487.466154988546,6658.897597658348,-2089.329312959828,29148.37350229901,8397.684502325596,15970.299061572441,10957.674498280823,0.012,1.018,0.176,2019-03-17T21:25:34.246868,12,EyesOpen
-18457.489425836735,-9531.320277609859,6731.898395049381,-1887.8283366952346,29143.4784702633,8852.766019435647,15968.175645849187,11100.882125005975,0.0,0.0,0.0,2019-03-17T21:25:34.247811,12,EyesOpen
-18601.993453740295,-9702.959323282163,6619.200899505723,-1922.7864650233348,28992.514788212156,9172.753593057823,15824.498632490473,11046.902662146409,0.0,0.0,0.0,2019-03-17T21:25:34.253500,12,EyesOpen
-18574.14318014898,-9666.77184900902,6528.00578212807,-2130.5906332243244,28975.661572892855,8756.854683977925,15807.287789259886,10892.206238771229,0.0,0.0,0.0,2019-03-17T21:25:34.254292,12,EyesOpen
-18408.87438164644,-9482.615826441745,6634.154216546323,-2112.284554515428,29131.274417790704,8386.396871375666,15954.429323009173,10931.232384590196,0.0,0.0,0.0,2019-03-17T21:25:34.261484,12,EyesOpen
-18417.368044539457,-9500.363111539258,6735.631136373418,-1898.132490889131,29168.557127542157,8753.501922309628,15990.080355415388,11086.778174254678,0.0,0.0,0.0,2019-03-17T21:25:34.262298,12,EyesOpen
-18571.25980511425,-9683.356843394857,6650.761562676616,-1874.5737522332374,29028.97048341876,9177.268645437794,15858.339173595808,11075.825819471576,0.0,0.0,0.0,2019-03-17T21:25:34.269439,12,EyesOpen
-18590.750526279277,-9707.183802984215,6538.801674699984,-2081.9755890340316,28970.431264690313,8867.004080653678,15805.343187492275,10916.54728848306,0.0,0.0,0.0,2019-03-17T21:25:34.269934,12,EyesOpen
-18445.754759997697,-9529.755655497987,6617.636277393852,-2122.5887087093247,29110.487295447267,8405.239391951489,15938.336067001352,10911.249925047152,0.0,0.0,0.0,2019-03-17T21:25:34.276357,12,EyesOpen
-18404.02405309964,-9489.254294544971,6732.010153771657,-1928.3967528816167,29177.117845668537,8650.348621648387,16000.07158518691,11058.391458796437,0.0,0.0,0.0,2019-03-17T21:25:34.277304,12,EyesOpen
-18543.43188326739,-9638.206319595138,6679.2823886015885,-1856.0665078242432,29054.69734128682,9149.552482313215,15885.831819275836,11088.074575433086,0.008,1.026,0.176,2019-03-17T21:25:34.283182,12,EyesOpen
-18613.951637023885,-9711.83296583092,6541.170959612246,-2060.897894012677,28953.846270304475,8953.460628206805,15790.881608829692,10921.308210052039,0.0,0.0,0.0,2019-03-17T21:25:34.291075,12,EyesOpen
-18470.453437620814,-9554.722554054566,6583.68397756624,-2160.0055289275087,29073.964545007297,8431.234470753012,15902.19329621712,10872.603758883924,0.0,0.0,0.0,2019-03-17T21:25:34.291756,12,EyesOpen
-18386.92496859133,-9465.7849628669,6727.495101391685,-1973.7484423814349,29188.517235340743,8560.338146726865,16009.235800413586,11025.46733921377,0.0,0.0,0.0,2019-03-17T21:25:34.299196,12,EyesOpen
-18512.944103830352,-9601.392996477247,6701.790595268082,-1854.9936240903885,29084.872196301487,9097.472917732348,15914.017369033978,11093.461345846814,0.0,0.0,0.0,2019-03-17T21:25:34.299847,12,EyesOpen
-18597.031366471216,-9696.052634245472,6568.305977380989,-2012.5734225003032,28973.292287980592,9056.725687590324,15809.679425916604,10964.067097195042,0.0,0.0,0.0,2019-03-17T21:25:34.305739,12,EyesOpen
-18477.874216779976,-9572.17926647416,6569.691785537218,-2150.8189619563773,29062.69926580182,8520.172061940679,15894.61605484677,10884.293721234051,0.0,0.0,0.0,2019-03-17T21:25:34.306503,12,EyesOpen
-18383.14752377838,-9472.602244925767,6694.928609720303,-2010.673524221602,29183.421037604934,8502.1565559097,16009.794594024968,11007.228315738239,0.0,0.0,0.0,2019-03-17T21:25:34.313735,12,EyesOpen
-18487.70898434031,-9581.32112995638,6700.225973156211,-1854.6359961791036,29109.70498439133,9044.096951973075,15944.43809323765,11109.889878021464,0.0,0.0,0.0,2019-03-17T21:25:34.314408,12,EyesOpen
-18605.525029364235,-9697.460794146156,6568.238922147623,-1971.4015092136276,28976.846215348985,9141.930537453954,15820.65413244416,11002.489745913714,0.0,0.0,0.0,2019-03-17T21:25:34.321953,12,EyesOpen
-18516.09569979855,-9613.306476271926,6536.566500254453,-2149.343746822327,29032.569114276066,8611.970676418625,15872.934862725124,10887.311206735518,0.004,1.028,0.17,2019-03-17T21:25:34.322594,12,EyesOpen
-18390.434192470813,-9486.773250910432,6666.474839028698,-2051.6889752970906,29174.413284589446,8448.266500027956,16003.469050344116,10980.7414985587,0.0,0.0,0.0,2019-03-17T21:25:34.328865,12,EyesOpen
-18453.354353112503,-9557.404763389202,6716.788615797594,-1861.296816026785,29144.417243530424,8952.298337495129,15977.406916309228,11109.733415810279,0.0,0.0,0.0,2019-03-17T21:25:34.329725,12,EyesOpen
-18591.085802446105,-9702.15466048177,6600.872469052371,-1932.4647703724827,29002.01427960566,9176.039299492753,15844.168167611144,11029.490653215726,0.0,0.0,0.0,2019-03-17T21:25:34.336444,12,EyesOpen
-18542.962496633827,-9643.369572564314,6537.125293865835,-2131.1717785801625,29017.146410601905,8702.338779251431,15859.412057329662,10885.925398579288,0.0,0.0,0.0,2019-03-17T21:25:34.337086,12,EyesOpen
-18393.049346572083,-9493.277608546927,6645.352440518433,-2083.5625628903585,29164.62322051802,8410.357941431754,15998.238742141575,10940.709524239246,0.0,0.0,0.0,2019-03-17T21:25:34.343639,12,EyesOpen
-18422.240724830714,-9529.643896775711,6716.095711719479,-1883.1791738485306,29163.729150739808,8843.825321653525,15999.222218897608,11080.34087185155,0.0,0.0,0.0,2019-03-17T21:25:34.344376,12,EyesOpen
-18579.976985451816,-9690.040014986995,6615.423454692776,-1904.0557031697874,29019.94037865882,9192.62429387859,15863.413019587162,11037.939612619832,0.0,0.0,0.0,2019-03-17T21:25:34.351395,12,EyesOpen
-18571.148046391972,-9683.848581772874,6516.315819777945,-2119.7500371635006,28990.458427722268,8791.343425672463,15829.684237204105,10872.894331561844,0.0,0.0,0.0,2019-03-17T21:25:34.358511,12,EyesOpen
-18406.683910689822,-9500.877201661731,6610.550774401519,-2125.0026971104976,29137.264685304726,8386.553333586853,15960.352535289829,10890.39574747035,0.0,0.0,0.0,2019-03-17T21:25:34.359291,12,EyesOpen
-18390.50124770418,-9486.437974743601,6722.0189240001355,-1912.035275940332,29181.11880792604,8735.799340701025,16003.111422432832,11052.892929660431,0.002,1.03,0.17200000000000001,2019-03-17T21:25:34.365897,12,EyesOpen
-18561.872072443017,-9667.241235642581,6641.753809661128,-1882.2851040703183,29037.441794567323,9174.362918658606,15867.346926611297,11049.383705780949,0.0,0.0,0.0,2019-03-17T21:25:34.366544,12,EyesOpen
-18583.73207852031,-9686.620198085333,6533.146683352791,-2080.7462430889896,28981.69654389579,8892.082737932533,15813.769795151926,10896.318959751006,0.0,0.0,0.0,2019-03-17T21:25:34.374028,12,EyesOpen
-18429.907373178885,-9521.530213538434,6599.330198684955,-2135.4633135155814,29113.929464093384,8412.704874599562,15936.994962334033,10877.744660108645,0.0,0.0,0.0,2019-03-17T21:25:34.374672,12,EyesOpen
-18384.510980190156,-9482.414660741648,6730.1773107263225,-1934.5434826068263,29195.982717988816,8640.603261065873,16016.07543421691,11037.023191097163,0.0,0.0,0.0,2019-03-17T21:25:34.382170,12,EyesOpen
-18523.650589424444,-9638.407485295234,6685.138545648879,-1849.808019376757,29075.84209154154,9150.982993958354,15909.368206187273,11081.525514307681,0.0,0.0,0.0,2019-03-17T21:25:34.382930,12,EyesOpen
-18590.281139645715,-9704.792166327497,6549.932843438726,-2040.155475158152,28976.77916011562,8988.597570490549,15818.731882421003,10930.360666556438,0.0,0.0,0.0,2019-03-17T21:25:34.388885,12,EyesOpen
-18461.17746367186,-9559.818751790375,6579.191276930724,-2149.18728461114,29085.52039689069,8460.470552500552,15920.499374926017,10872.380241439372,0.0,0.0,0.0,2019-03-17T21:25:34.389819,12,EyesOpen
-18383.035765056105,-9471.998747825473,6716.810967542049,-1978.4646604615048,29197.77085754524,8554.370230957298,16022.445681386673,11014.850260597499,0.0,0.0,0.0,2019-03-17T21:25:34.396861,12,EyesOpen
-18494.526266399178,-9599.537801687457,6707.713807548739,-1845.0247460633216,29109.14619077995,9100.065720089164,15940.459482724606,11099.608075572023,0.0,0.0,0.0,2019-03-17T21:25:34.397502,12,EyesOpen
-18586.30252913267,-9718.203213000681,6561.2428261331115,-2010.3605997992279,28981.093046795497,9075.612911655058,15820.028283599411,10960.490818082193,0.008,1.02,0.168,2019-03-17T21:25:34.404814,12,EyesOpen
-18500.360071702013,-9597.123813286284,6555.297262108,-2161.0337091724527,29067.75076004872,8535.103027236823,15899.846363049313,10870.457991416215,0.0,0.0,0.0,2019-03-17T21:25:34.405459,12,EyesOpen
-18389.942454092798,-9471.194085025083,6694.168650408823,-2022.16232087163,29201.83887503611,8487.829087713848,16024.434986643195,10992.207943464273,0.0,0.0,0.0,2019-03-17T21:25:34.410981,12,EyesOpen
-18476.667222579388,-9570.838161806842,6712.966467495736,-1855.3065485127627,29135.700063192853,9023.64510579647,15965.314622558908,11100.949180239342,0.0,0.0,0.0,2019-03-17T21:25:34.418257,12,EyesOpen
-18601.993453740295,-9714.649285632288,6578.364262385877,-1971.8485441027337,28991.084276567017,9139.829473475156,15828.901926148168,10989.659844596368,0.0,0.0,0.0,2019-03-17T21:25:34.419103,12,EyesOpen
-18516.43097596538,-9618.603839707834,6544.121389880346,-2151.0424794009305,29039.006416679196,8620.732560245104,15871.884330735724,10866.188808225252,0.0,0.0,0.0,2019-03-17T21:25:34.426324,12,EyesOpen
-18368.82005558253,-9463.438029699091,6680.243513613166,-2051.6666235526354,29187.891386495998,8440.063409812858,16009.191096924675,10957.540387814091,0.0,0.0,0.0,2019-03-17T21:25:34.427149,12,EyesOpen
-18429.21446910077,-9530.448559576102,6735.2288049732215,-1861.0956503266873,29157.470662292322,8934.014610530689,15980.625567510793,11086.465249832303,0.0,0.0,0.0,2019-03-17T21:25:34.434227,12,EyesOpen
-18569.38225858,-9686.329625407414,6618.038608794047,-1926.6756685585583,29007.870436652953,9183.728299585378,15837.127368107722,11007.205963993783,0.0,0.0,0.0,2019-03-17T21:25:34.434916,12,EyesOpen
-18521.817746379107,-9631.031409624984,6553.956157440682,-2124.823883154855,29020.7003379703,8720.734264938148,15848.727923480026,10861.897273289833,0.0,0.0,0.0,2019-03-17T21:25:34.441651,12,EyesOpen
-18364.6849828583,-9468.847151857275,6673.962673421225,-2074.331292430317,29176.871976479528,8410.827328065316,15994.863628728823,10919.810643173534,0.006,1.012,0.178,2019-03-17T21:25:34.442640,12,EyesOpen
-18380.01827955464,-9494.953989381074,6753.758401126672,-1872.4950399988938,29186.88555799551,8825.228670266708,16001.50209683205,11062.973566409775,0.0,0.0,0.0,2019-03-17T21:25:34.449082,12,EyesOpen
-18546.6281827245,-9668.515285076533,6642.022030594591,-1899.4735955564495,29027.338806073527,9178.162715216007,15851.723057237037,11013.285638485628,0.0,0.0,0.0,2019-03-17T21:25:34.449825,12,EyesOpen
-18549.04217112567,-9659.261662872037,6548.904663193783,-2105.936659090121,29000.36025051597,8806.654370624348,15826.398530769175,10863.10426749042,0.0,0.0,0.0,2019-03-17T21:25:34.457014,12,EyesOpen
-18386.142657535394,-9490.863620145754,6642.469065483698,-2119.0124295964756,29148.976999399307,8394.599961590762,15965.426381281184,10882.460878188716,0.0,0.0,0.0,2019-03-17T21:25:34.457687,12,EyesOpen
-18373.379811451414,-9471.998747825473,6744.705944622272,-1919.2772411438516,29195.982717988816,8714.811052657491,16008.900524246756,11037.581984708546,0.0,0.0,0.0,2019-03-17T21:25:34.463998,12,EyesOpen
-18534.4241302519,-9654.14311339177,6665.26784482811,-1886.8225081947458,29054.965562220284,9164.751668542824,15875.125333681743,11036.710266674789,0.0,0.0,0.0,2019-03-17T21:25:34.464863,12,EyesOpen
-18569.985755680296,-9696.454965645667,6551.162189383768,-2089.6869408711127,28987.73151489872,8902.38689212643,15809.478260216507,10879.286930476062,0.0,0.0,0.0,2019-03-17T21:25:34.470763,12,EyesOpen
-18418.30681780658,-9533.130768910738,6612.987114547148,-2159.4914388050365,29119.584455440578,8408.413339664143,15930.602363419815,10850.631994084359,0.0,0.0,0.0,2019-03-17T21:25:34.478547,12,EyesOpen
-18358.605308366456,-9471.194085025083,6736.659316618361,-1973.2120005145075,29201.21302619136,8598.783147189994,16007.648826557259,10997.527658644636,0.0,0.0,0.0,2019-03-17T21:25:34.479384,12,EyesOpen
-18500.248312979737,-9612.792386149453,6697.99079871068,-1878.2170865794524,29087.308536447115,9118.70707496489,15905.456650907596,11049.786037181144,0.008,1.014,0.182,2019-03-17T21:25:34.488110,12,EyesOpen
-18559.94982241986,-9680.5852270824,6573.558637327986,-2048.4703240955264,28992.626546934433,9002.25448635274,15819.737710921492,10914.222707059707,0.0,0.0,0.0,2019-03-17T21:25:34.488882,12,EyesOpen
-18429.97442841225,-9538.98692595803,6593.518745126575,-2165.3028923634165,29094.75166735073,8465.454991514087,15916.319598712875,10846.42986612676,0.0,0.0,0.0,2019-03-17T21:25:34.494317,12,EyesOpen
-18347.40708439435,-9451.792770837876,6726.288107191099,-1997.5083467374263,29208.052659994682,8528.621021344785,16023.675027331714,10982.663748581857,0.0,0.0,0.0,2019-03-17T21:25:34.494973,12,EyesOpen
-18470.788713787642,-9577.253112465514,6722.912993778347,-1853.0043188338661,29123.71952816481,9078.9433215789,15949.847215395836,11073.545941537135,0.0,0.0,0.0,2019-03-17T21:25:34.501351,12,EyesOpen
-18576.221892383324,-9697.81842205744,6585.002730489103,-1997.2177740595073,28994.88407312442,9087.571094938648,15829.594830226282,10942.721181240224,0.0,0.0,0.0,2019-03-17T21:25:34.502025,12,EyesOpen
-18471.79454228813,-9589.904199827219,6568.373032614355,-2157.2115608705953,29061.201698923316,8541.137998239756,15892.805563545891,10835.544566577026,0.0,0.0,0.0,2019-03-17T21:25:34.509273,12,EyesOpen
-18345.618944837923,-9456.620747640223,6707.825566271015,-2025.5374342843813,29196.385049389013,8466.997261881503,16020.724597063614,10951.348954599973,0.0,0.0,0.0,2019-03-17T21:25:34.509926,12,EyesOpen
-18432.94721042481,-9546.787684772931,6737.151054996379,-1851.8420281221902,29144.05961561914,9001.226306107797,15971.014317395011,11067.846246701032,0.0,0.0,0.0,2019-03-17T21:25:34.517283,12,EyesOpen
-18566.990621923283,-9686.888419018796,6606.63921912184,-1960.3373957082506,29001.45548599428,9143.964546199388,15837.574402996828,10961.429591349315,0.0,0.0,0.0,2019-03-17T21:25:34.517936,12,EyesOpen
-18487.32900468457,-9598.621380164788,6568.01540470307,-2142.794685696922,29048.170631905872,8638.122217431333,15883.216665174565,10839.366714878883,0.0,1.026,0.178,2019-03-17T21:25:34.523786,12,EyesOpen
-18341.081540713494,-9452.865654571731,6696.672045787817,-2061.5907980907914,29198.061430223162,8423.098435771279,16023.31739942043,10924.392750786872,0.0,0.0,0.0,2019-03-17T21:25:34.524485,12,EyesOpen
-18402.750003665686,-9516.366960569258,6752.707869137272,-1873.0091301213658,29174.368581100534,8896.687197290326,16002.843201499369,11056.7597814512,0.0,0.0,0.0,2019-03-17T21:25:34.531198,12,EyesOpen
-18549.690371714874,-9673.633834556798,6641.507940472119,-1924.7534185354018,29028.635207251933,9174.586436103158,15866.81048474437,10994.107841742974,0.0,0.0,0.0,2019-03-17T21:25:34.538578,12,EyesOpen
-18525.729301658786,-9650.656241256744,6555.230206874634,-2136.893825160721,29019.873323425454,8719.683732948748,15855.500502049985,10837.936203233743,0.0,0.0,0.0,2019-03-17T21:25:34.539158,12,EyesOpen
-18384.26511100115,-9496.608018470766,6658.495266258153,-2114.0726940718528,29166.187842629894,8378.439650349575,15989.901541459745,10876.783535097067,0.0,0.0,0.0,2019-03-17T21:25:34.546603,12,EyesOpen
-18390.277730259626,-9506.956876153574,6756.619424416951,-1901.842880468712,29192.853473765073,8786.895428525857,16017.282428417497,11034.855071884998,0.0,0.0,0.0,2019-03-17T21:25:34.547016,12,EyesOpen
-18539.85560415454,-9666.593035053378,6661.9150831598145,-1901.7311217464355,29051.433986596345,9176.463982637404,15882.412002374174,11009.642304139412,0.0,0.0,0.0,2019-03-17T21:25:34.553207,12,EyesOpen
-18536.7263599308,-9659.19460763867,6565.132029668335,-2106.294287001406,29019.895675169908,8835.331658760508,15849.823158958336,10859.39387791084,0.0,0.0,0.0,2019-03-17T21:25:34.553529,12,EyesOpen
-18379.325375476525,-9493.590532969301,6645.531254474075,-2137.18439783864,29155.63781924699,8401.171374460624,15977.608082009327,10865.384145424861,0.0,0.0,0.0,2019-03-17T21:25:34.561106,12,EyesOpen
-18354.44788389777,-9471.797582125377,6751.523226681141,-1937.71743031948,29206.331575671626,8692.325197735452,16026.558402366449,11016.548993176102,0.002,1.024,0.17400000000000002,2019-03-17T21:25:34.561512,12,EyesOpen
-18526.109281314526,-9642.251985341547,6673.716804232216,-1892.8574791976787,29065.157957691907,9157.710869039402,15893.789040301925,11020.885231600432,0.0,0.0,0.0,2019-03-17T21:25:34.569658,12,EyesOpen
-18572.936185948394,-9685.904942262763,6548.234110860123,-2091.7433013610007,28988.51382595466,8925.47624414876,15820.028283599411,10863.596005868436,0.0,0.0,0.0,2019-03-17T21:25:34.570333,12,EyesOpen
-18424.11827136496,-9517.350437325293,6601.587724874941,-2168.9462267096314,29116.857542617032,8421.198537492579,15939.386598990752,10830.515424074581,0.0,0.0,0.0,2019-03-17T21:25:34.576112,12,EyesOpen
-18359.946413033773,-9472.490486203491,6742.202549243278,-1970.9991778134322,29216.702785098885,8599.140775101278,16033.97918152561,10988.072870740041,0.0,0.0,0.0,2019-03-17T21:25:34.576782,12,EyesOpen
-18498.28135946767,-9632.461921270124,6709.077263960513,-1868.0246911078325,29105.5699116671,9123.780920956246,15929.708293641603,11043.080513844552,0.0,0.0,0.0,2019-03-17T21:25:34.584392,12,EyesOpen
-18572.422095825925,-9708.97194254064,6576.9784542296475,-2039.8649024802332,29000.44965749379,9023.64510579647,15830.935934893601,10899.403500485838,0.0,0.0,0.0,2019-03-17T21:25:34.585200,12,EyesOpen
-18438.781015727644,-9561.472780880069,6594.457518393698,-2162.6206830287797,29101.591301154054,8483.291683589421,15927.607229662804,10826.08977867243,0.0,0.0,0.0,2019-03-17T21:25:34.591247,12,EyesOpen
-18347.00475299415,-9458.140666263183,6727.673915347328,-2003.9903526294654,29218.423869421946,8514.695884549128,16035.722617593125,10956.579262802514,0.0,0.0,0.0,2019-03-17T21:25:34.592123,12,EyesOpen
-18461.71390553879,-9575.04028976444,6730.579642126518,-1854.166609545542,29139.477508005803,9063.297100460184,15959.100837600332,11050.903624403909,0.0,0.0,0.0,2019-03-17T21:25:34.600045,12,EyesOpen
-18576.423058083423,-9683.87093351733,6591.395329403321,-1998.804747915834,29004.36121277347,9098.635208444024,15832.880536661212,10922.515204252626,0.006,1.026,0.17200000000000001,2019-03-17T21:25:34.606974,12,EyesOpen
-18466.27366140767,-9580.069432266884,6583.3039979105,-2156.6527672592124,29080.312440432604,8562.998004317047,15907.021273019467,10823.876955971356,0.0,0.0,0.0,2019-03-17T21:25:34.607771,12,EyesOpen
-18330.28564814158,-9459.101791274761,6714.486386118697,-2039.6860885245908,29219.563808389164,8457.095439087801,16037.667219360737,10935.501567781159,0.0,0.0,0.0,2019-03-17T21:25:34.613908,12,EyesOpen
-18431.539050524123,-9565.049059992918,6735.3405636954985,-1876.8983336565893,29162.835080961595,8966.82697139108,15981.921968689201,11045.695667945824,0.0,0.0,0.0,2019-03-17T21:25:34.614901,12,EyesOpen
-18568.5328922907,-9706.06621576145,6610.573126145974,-1972.9214278365885,29023.31549207157,9138.309554852194,15846.313935078853,10950.343126099484,0.0,0.0,0.0,2019-03-17T21:25:34.621586,12,EyesOpen
-18505.255103737727,-9628.080979356882,6559.342927854411,-2164.900560963221,29052.46216684129,8639.530377332017,15876.198217415598,10818.825461724457,0.0,0.0,0.0,2019-03-17T21:25:34.622390,12,EyesOpen
-18360.572261878522,-9464.086230288296,6684.378586337399,-2085.8424408247997,29205.54926461569,8403.004217505959,16022.937419764688,10899.202334785741,0.0,0.0,0.0,2019-03-17T21:25:34.628912,12,EyesOpen
-18406.080413589527,-9519.853832704286,6752.238482503711,-1884.0732436267429,29194.418095876947,8871.027394655634,16015.31547490543,11040.71122893229,0.0,0.0,0.0,2019-03-17T21:25:34.629555,12,EyesOpen
-18538.067464598116,-9673.879703745808,6645.195978307245,-1924.1722731795637,29045.17549814886,9182.633064107069,15877.405211616186,10986.642359094902,0.0,0.0,0.0,2019-03-17T21:25:34.636426,12,EyesOpen
-18501.008272291216,-9628.975049135095,6564.8861604793265,-2128.6907349456233,29033.26201835418,8758.598120045439,15866.05052543289,10833.644668298324,0.0,0.0,0.0,2019-03-17T21:25:34.637068,12,EyesOpen
-18352.570337363522,-9451.345735948771,6679.640016512873,-2095.4983944294922,29192.473494109334,8408.770967575427,16015.807213283446,10878.996357798143,0.008,1.02,0.17200000000000001,2019-03-17T21:25:34.644424,12,EyesOpen
-18366.316660203538,-9472.266968758937,6772.980901358235,-1889.1247378736423,29217.798020577196,8791.343425672463,16036.594335626882,11030.004743338197,0.0,0.0,0.0,2019-03-17T21:25:34.645138,12,EyesOpen
-18518.66615041091,-9639.14509286226,6678.2765601011,-1885.5708105052486,29070.65648682791,9197.184049747473,15897.946464770612,11006.825984338044,0.0,0.0,0.0,2019-03-17T21:25:34.652602,12,EyesOpen
-18531.473699983802,-9639.659182984733,6573.3351198834325,-2093.9561240620765,29026.467088039768,8873.106106889976,15856.79690322839,10850.631994084359,0.0,0.0,0.0,2019-03-17T21:25:34.653399,12,EyesOpen
-18381.337032477502,-9488.896666633686,6648.12405683089,-2133.3622495367827,29165.360828085046,8417.756368846462,15988.403974581239,10844.820540525978,0.0,0.0,0.0,2019-03-17T21:25:34.659813,12,EyesOpen
-18353.643221097376,-9475.575026938322,6760.776848885638,-1935.0575727292983,29228.906837571485,8680.925808063246,16046.831434587413,10995.873629554944,0.0,0.0,0.0,2019-03-17T21:25:34.665963,12,EyesOpen
-18514.03933930866,-9646.208244110137,6696.962618465736,-1878.4406040240056,29094.95283305083,9159.387249873549,15920.38761620374,11014.336170475028,0.0,0.0,0.0,2019-03-17T21:25:34.666616,12,EyesOpen
-18563.928432932906,-9698.891305791296,6570.719965782162,-2077.482888398515,29009.21154132027,8949.213796760298,15840.390722798196,10857.270462187584,0.0,0.0,0.0,2019-03-17T21:25:34.674042,12,EyesOpen
-18400.425422242337,-9524.771216484454,6629.370943232888,-2154.8422759583327,29140.57274348411,8445.450180226586,15963.839407424857,10825.262764127585,0.0,0.0,0.0,2019-03-17T21:25:34.674977,12,EyesOpen
-18332.856098753942,-9450.474017915014,6760.598034929995,-1974.553105181826,29234.762994618774,8587.69668194016,16052.620536401337,10970.347937386983,0.0,0.0,0.0,2019-03-17T21:25:34.681991,12,EyesOpen
-18471.50396961021,-9596.341502230347,6730.400828170876,-1864.426060250528,29130.000368356752,9117.924763908955,15954.384619520262,11032.463435228281,0.006,1.024,0.178,2019-03-17T21:25:34.682677,12,EyesOpen
-18559.011049152738,-9678.73003229261,6600.671303352274,-2027.2808703518954,29023.583713005035,9047.60617585256,15854.181749127121,10895.000206828143,0.0,0.0,0.0,2019-03-17T21:25:34.688798,12,EyesOpen
-18439.004533172196,-9549.067562707372,6608.673227867273,-2164.7440987520336,29113.90711234893,8501.731872765049,15940.213613535598,10810.152984875796,0.0,0.0,0.0,2019-03-17T21:25:34.689443,12,EyesOpen
-18334.308962143536,-9442.650907355655,6745.95764231177,-2015.0544661348424,29239.523916187754,8503.743529766027,16056.50973993656,10937.110893381941,0.0,0.0,0.0,2019-03-17T21:25:34.696675,12,EyesOpen
-18440.904431450897,-9567.060716993896,6752.037316803613,-1857.362909002651,29163.885612950995,9047.427361896916,15985.095916401855,11035.793845152122,0.0,0.0,0.0,2019-03-17T21:25:34.697316,12,EyesOpen
-18555.63593573999,-9690.77762255402,6618.463291938698,-1986.1536605541303,29028.635207251933,9119.891717421022,15857.310993350864,10918.290724550572,0.0,0.0,0.0,2019-03-17T21:25:34.704894,12,EyesOpen
-18449.263983877183,-9561.830408791353,6600.917172541282,-2151.131886378752,29092.203568482826,8590.803574419448,15919.58295340335,10810.510612787082,0.0,0.0,0.0,2019-03-17T21:25:34.705544,12,EyesOpen
-18319.355645102936,-9421.461453612024,6734.871177061937,-2040.9154344696326,29234.762994618774,8452.490979730008,16051.324135222929,10907.383073256384,0.0,0.0,0.0,2019-03-17T21:25:34.711351,12,EyesOpen
-18378.766581865144,-9508.052111631885,6777.33949152702,-1856.0665078242432,29198.374354645533,8968.77157315869,16015.896620261268,11032.888118372932,0.0,0.0,0.0,2019-03-17T21:25:34.712288,12,EyesOpen
-18539.117996587516,-9691.626988843322,6645.195978307245,-1946.680479846058,29047.94711446132,9169.087906967152,15872.912510980668,10941.603594017459,0.0,0.0,0.0,2019-03-17T21:25:34.718346,12,EyesOpen
-18494.861542566006,-9630.00322938004,6586.947332256715,-2144.1357903642406,29070.164748449894,8679.71881386266,15892.939674012623,10803.693330728214,0.0,0.0,0.0,2019-03-17T21:25:34.726348,12,EyesOpen
-18358.24768045517,-9465.315576233337,6698.795461511071,-2090.7151211160567,29214.869942053552,8403.451252395065,16026.893678533279,10863.439543657249,0.006,1.012,0.178,2019-03-17T21:25:34.727019,12,EyesOpen
-18383.460448200756,-9498.373806282736,6780.178163072845,-1882.1509936035866,29221.687224112422,8864.433630041318,16034.448568159172,11017.353655976494,0.0,0.0,0.0,2019-03-17T21:25:34.734332,12,EyesOpen
-18529.685560427377,-9663.463790829634,6671.056946642036,-1915.6115550531813,29069.203623438316,9191.216133977907,15893.342005412818,10968.425687363826,0.0,0.0,0.0,2019-03-17T21:25:34.735298,12,EyesOpen
-18509.18901076186,-9639.167444606715,6583.885143266338,-2119.5935749523132,29054.429120353358,8783.363852901919,15879.930958739635,10819.0042756801,0.0,0.0,0.0,2019-03-17T21:25:34.740973,12,EyesOpen
-18352.324468174516,-9467.237826256494,6687.351368349954,-2107.255412012984,29209.617282106556,8405.552316373864,16024.882021532301,10854.632956341859,0.0,0.0,0.0,2019-03-17T21:25:34.741818,12,EyesOpen
-18342.355590147446,-9459.414715697136,6790.951703900302,-1892.8798309421338,29250.96800934887,8770.757469029126,16062.835283617413,11013.598562908002,0.0,0.0,0.0,2019-03-17T21:25:34.749089,12,EyesOpen
-18503.578722903578,-9628.058627612429,6705.769205781127,-1874.9537318889777,29104.161751766416,9192.870163067599,15927.62958140726,11001.282751713128,0.0,0.0,0.0,2019-03-17T21:25:34.749730,12,EyesOpen
-18528.90324937144,-9662.435610584691,6590.523611369564,-2084.9483710465875,29050.696379029323,8887.590037297015,15877.181694171632,10844.552319592514,0.0,0.0,0.0,2019-03-17T21:25:34.756960,12,EyesOpen
-18378.5877679095,-9499.759614438964,6659.612853480918,-2138.0337641279416,29187.086723695604,8418.203403735568,16004.251361400053,10834.449331098716,0.0,0.0,0.0,2019-03-17T21:25:34.757753,12,EyesOpen
-18331.805566764542,-9451.882177815698,6781.765136929172,-1942.0089652548988,29259.618134453078,8664.81020031097,16072.245368033096,10989.570437618548,0.0,0.0,0.0,2019-03-17T21:25:34.764274,12,EyesOpen
-18480.958757514807,-9607.964409347107,6724.209394956755,-1873.5008684993827,29133.040205602672,9161.398906874527,15952.596479963839,11020.147624033407,0.012,1.016,0.178,2019-03-17T21:25:34.764924,12,EyesOpen
-18543.92362164541,-9686.642549829789,6596.06684399448,-2066.55288535987,29042.023902180663,8981.512067498215,15864.932938210124,10863.797171568534,0.0,0.0,0.0,2019-03-17T21:25:34.771520,12,EyesOpen
-18402.92881762133,-9541.020934703462,6633.684829912762,-2162.9783109400646,29156.48718553629,8458.771819921949,15969.472047027595,10810.845888953912,0.0,0.0,0.0,2019-03-17T21:25:34.772344,12,EyesOpen
-18317.99218869116,-9447.165959735628,6767.705889666783,-1982.1526982966302,29260.445148997922,8577.973673102102,16068.60203368688,10958.613271547947,0.0,0.0,0.0,2019-03-17T21:25:34.778471,12,EyesOpen
-18459.6575450489,-9584.025691035473,6745.443552189297,-1862.1014788271762,29160.398740815966,9115.488423763327,15975.596425008349,11031.837586383532,0.0,0.0,0.0,2019-03-17T21:25:34.786325,12,EyesOpen
-18554.495996772766,-9684.317968406436,6608.360303444899,-2025.8727104512109,29042.202716136304,9067.83450458461,15859.367353840753,10893.815564372011,0.0,0.0,0.0,2019-03-17T21:25:34.786706,12,EyesOpen
-18429.79561445661,-9546.854740006298,6614.171757003279,-2171.449622088626,29127.921656122406,8522.474291619576,15937.218479778587,10805.347359817906,0.0,0.0,0.0,2019-03-17T21:25:34.793664,12,EyesOpen
-18315.645255523355,-9413.86186049722,6756.2394447612105,-2025.8727104512109,29256.5559454627,8497.999131441013,16060.80127487198,10935.725085225713,0.0,0.0,0.0,2019-03-17T21:25:34.794208,12,EyesOpen
-18415.088166605015,-9549.492245852023,6769.471677478752,-1866.0577375957655,29185.276232394725,9032.921079745422,15996.227085140597,11041.873519643965,0.0,0.0,0.0,2019-03-17T21:25:34.801252,12,EyesOpen
-18540.123825088005,-9703.473413404634,6636.45644622522,-1983.136175052664,29047.343617361024,9127.871290191566,15865.804656243881,10931.299439823562,0.0,0.0,0.0,2019-03-17T21:25:34.802194,12,EyesOpen
-18460.28339389365,-9592.854630095318,6614.797605848027,-2150.573092767369,29107.29099599016,8606.919182171725,15924.0085988055,10822.75936874859,0.014,1.018,0.178,2019-03-17T21:25:34.809289,12,EyesOpen
-18325.547078317057,-9437.82293055331,6752.596110414996,-2042.100076925764,29255.348951262113,8449.540549461908,16061.65064116128,10925.845614176467,0.0,0.0,0.0,2019-03-17T21:25:34.810189,12,EyesOpen
-18387.953148836274,-9509.63908548821,6800.004160404702,-1849.6962606544807,29221.687224112422,8955.159360785408,16028.793576811979,11059.7102117193,0.0,0.0,0.0,2019-03-17T21:25:34.817272,12,EyesOpen
-18525.3716737475,-9659.395773338769,6673.515638532119,-1922.4064853675945,29071.99759149523,9184.689424596956,15884.736583797525,10981.188533447807,0.0,0.0,0.0,2019-03-17T21:25:34.817911,12,EyesOpen
-18469.89464400943,-9591.021787049984,6613.232983736156,-2117.380752251238,29088.828455070074,8712.397064256318,15899.198162460109,10845.37933413736,0.0,0.0,0.0,2019-03-17T21:25:34.824035,12,EyesOpen
-18310.81727872101,-9427.652886826145,6736.838130574004,-2061.411984135149,29244.39659647901,8425.423017194631,16043.858652574856,10914.267410548617,0.0,0.0,0.0,2019-03-17T21:25:34.824723,12,EyesOpen
-18355.476064142713,-9476.893779861186,6809.213079120288,-1863.777859661324,29240.30622724369,8857.973975893734,16041.98110604061,11058.637327985445,0.0,0.0,0.0,2019-03-17T21:25:34.832460,12,EyesOpen
-18512.765289874707,-9644.755380720542,6700.89652548987,-1888.0965576286983,29090.773056837686,9204.62718065109,15900.71808108307,11017.46541469877,0.0,0.0,0.0,2019-03-17T21:25:34.833292,12,EyesOpen
-18495.710908855308,-9625.734046189076,6607.980323789159,-2092.1456327611963,29067.16961469288,8812.622286393915,15877.874598249746,10867.999299526133,0.0,0.0,0.0,2019-03-17T21:25:34.840710,12,EyesOpen
-18335.314790644024,-9448.261195213938,6706.730330792705,-2087.6305803812243,29218.826200822143,8417.108168257257,16020.702245319158,10897.816526629511,0.0,0.0,0.0,2019-03-17T21:25:34.841367,12,EyesOpen
-18343.786101792586,-9449.512892903434,6803.0216459061685,-1889.907048929578,29254.097253572614,8752.406686831318,16053.425199201727,11047.126179590963,0.008,1.028,0.168,2019-03-17T21:25:34.846809,12,EyesOpen
-18495.688557110854,-9622.515394987511,6723.829415301016,-1859.106345070165,29114.354147238035,9197.362863703116,15920.164098759187,11046.992069124231,0.0,0.0,0.0,2019-03-17T21:25:34.853398,12,EyesOpen
-18516.676845154387,-9641.514377774523,6616.585745404452,-2055.1758474321186,29058.452434355313,8917.988409756234,15866.631670788727,10898.509430707625,0.0,0.0,0.0,2019-03-17T21:25:34.854172,12,EyesOpen
-18367.277785215116,-9477.229056028016,6687.083147416491,-2111.5916504373135,29198.620223834543,8436.308316744366,15997.16585840772,10885.232494501173,0.0,0.0,0.0,2019-03-17T21:25:34.861386,12,EyesOpen
-18325.904706228343,-9441.622727110711,6810.755349487705,-1921.490063844927,29274.482044515855,8650.080400714922,16066.456266219171,11034.60920269599,0.0,0.0,0.0,2019-03-17T21:25:34.862030,12,EyesOpen
-18470.296975409627,-9591.357063216814,6756.284148250121,-1840.7108593834473,29146.6300662315,9150.804180002711,15946.852081638825,11067.7121362343,0.0,0.0,0.0,2019-03-17T21:25:34.869354,12,EyesOpen
-18525.41637723641,-9655.48421805909,6624.654725152818,-2020.0836086372865,29051.74691101872,9001.82980320809,15857.825083473335,10920.01180887363,0.0,0.0,0.0,2019-03-17T21:25:34.870046,12,EyesOpen
-18388.467238958747,-9507.225097087037,6656.08127785698,-2128.5789762233467,29159.2811535932,8476.362642808275,15962.811227179913,10866.166456480796,0.0,0.0,0.0,2019-03-17T21:25:34.876175,12,EyesOpen
-18313.700653755743,-9418.779244277388,6788.761232943682,-1957.7222416069797,29270.2575648138,8568.474181708596,16065.584548185416,11011.765719862668,0.0,0.0,0.0,2019-03-17T21:25:34.876813,12,EyesOpen
-18439.51862329467,-9556.778914544453,6768.532904211629,-1831.4125336900395,29173.832139233607,9107.061816103676,15974.612948252316,11085.928807965376,0.0,0.0,0.0,2019-03-17T21:25:34.884108,12,EyesOpen
-18540.23558381028,-9671.10808743335,6633.640126423851,-1986.5336402098706,29049.51173657319,9090.901504862488,15857.646269517694,10953.360611600949,-0.002,1.028,0.17200000000000001,2019-03-17T21:25:34.884902,12,EyesOpen
-18424.297085320602,-9546.228891161549,6633.7965886350385,-2135.6868309601346,29133.777813169698,8550.07869602188,15937.10672105631,10863.707764590712,0.0,0.0,0.0,2019-03-17T21:25:34.893499,12,EyesOpen
-18299.23907509316,-9400.7190347575,6778.032395605135,-1990.5346024673704,29275.55492824971,8509.845556002327,16069.071420320442,10993.929027787332,0.0,0.0,0.0,2019-03-17T21:25:34.894135,12,EyesOpen
-18404.627550199933,-9511.427225044636,6788.023625376657,-1831.1666645010312,29202.800000047686,9037.234966425296,16002.843201499369,11095.67416854789,0.0,0.0,0.0,2019-03-17T21:25:34.900171,12,EyesOpen
-18535.072330841103,-9663.016755940527,6649.55456847603,-1949.5415031363373,29055.90433548741,9151.541787569737,15863.211853887065,10981.635568336913,0.0,0.0,0.0,2019-03-17T21:25:34.900813,12,EyesOpen
-18451.767379256176,-9586.640845136744,6609.768463345584,-2133.4293047701485,29100.33960346456,8624.554708546963,15899.33227292684,10856.242281942641,0.0,0.0,0.0,2019-03-17T21:25:34.905930,12,EyesOpen
-18312.91834269981,-9435.811273552332,6742.470770176741,-2041.2283588920068,29252.5549832052,8436.129502788723,16035.074417003922,10946.789198731089,0.0,0.0,0.0,2019-03-17T21:25:34.913402,12,EyesOpen
-18370.988174794697,-9497.055053359873,6805.457986051797,-1837.6263186486149,29236.886410342027,8941.0107065452,16020.41167264124,11087.62754054398,0.0,0.0,0.0,2019-03-17T21:25:34.913773,12,EyesOpen
-18522.13067080148,-9659.999270439062,6677.2260281117,-1906.6261537821476,29082.03352475566,9190.7690990888,15873.784229014425,11009.865821583966,0.0,0.0,0.0,2019-03-17T21:25:34.921585,12,EyesOpen
-18475.974318501274,-9603.359949989313,6606.259239466101,-2111.748112648501,29090.86246381551,8728.445616775229,15882.166133185165,10866.367622180895,0.0,0.0,0.0,2019-03-17T21:25:34.922105,12,EyesOpen
-18332.699636542755,-9445.713096346033,6708.85374651596,-2084.9036675576767,29236.886410342027,8406.692255341084,16015.024902227511,10911.719311680712,-0.004,1.024,0.17400000000000002,2019-03-17T21:25:34.928649,12,EyesOpen
-18344.501357615158,-9465.807314611355,6794.796203946616,-1873.2102958214637,29256.89122162953,8832.917670359335,16030.760530324047,11065.588720511047,0.0,0.0,0.0,2019-03-17T21:25:34.928985,12,EyesOpen
-18488.446591907334,-9618.648543196743,6699.376606866909,-1879.714653457958,29109.302652991137,9205.230677751384,15894.370185657763,11034.631554440446,0.0,0.0,0.0,2019-03-17T21:25:34.936183,12,EyesOpen
-18493.18516173186,-9621.800139164941,6598.547887629019,-2093.6208478952467,29070.634135083455,8829.900184857868,15859.143836396199,10875.420078685294,0.0,0.0,0.0,2019-03-17T21:25:34.936637,12,EyesOpen
-18346.133034960396,-9466.008480311451,6683.260999114633,-2112.0386853264195,29212.79122981921,8410.313237942844,15990.616797282315,10888.942884080754,0.0,0.0,0.0,2019-03-17T21:25:34.944253,12,EyesOpen
-18325.837650994974,-9447.456532413547,6788.716529454771,-1904.0780549142428,29264.7590356778,8731.77602669907,16039.589469383893,11046.299165046117,0.0,0.0,0.0,2019-03-17T21:25:34.944781,12,EyesOpen
-18475.013193489696,-9614.982857106073,6709.9266302498145,-1859.687490426003,29128.882781133987,9188.332758943172,15912.855078322302,11052.334136049049,0.0,0.0,0.0,2019-03-17T21:25:34.952492,12,EyesOpen
-18513.994635819752,-9649.449247056156,6592.289399181534,-2060.8531905237664,29064.777978036163,8930.728904095758,15848.482054291018,10898.35296849644,0.0,0.0,0.0,2019-03-17T21:25:34.953152,12,EyesOpen
-18366.450770670268,-9478.793678139888,6652.393240021854,-2130.6576884576903,29191.132389442017,8434.229604510023,15966.655727226225,10871.10619200542,0.0,0.0,0.0,2019-03-17T21:25:34.959103,12,EyesOpen
-18311.353720587937,-9419.33803788877,6779.708776439283,-1936.711601818991,29274.951431149417,8626.052275425467,16045.490329920094,11024.103882801995,0.0,0.0,0.0,2019-03-17T21:25:34.959738,12,EyesOpen
-18454.807216502097,-9582.550475901422,6738.76038059716,-1838.9674233159333,29160.3316855826,9143.629270032558,15937.307886756407,11072.450706058826,-0.006,1.02,0.178,2019-03-17T21:25:34.966128,12,EyesOpen
-18530.914906372418,-9662.502665818056,6600.850117307916,-2022.8775766942,29053.42329185287,9016.201974892852,15838.200251841576,10921.9787623857,0.0,0.0,0.0,2019-03-17T21:25:34.973796,12,EyesOpen
-18392.937587849807,-9521.865489705264,6621.838405351449,-2143.956976408598,29160.041112904684,8478.955445165091,15937.710218156602,10856.890482531844,0.0,0.0,0.0,2019-03-17T21:25:34.974442,12,EyesOpen
-18303.217685606203,-9428.703418815545,6755.993575572202,-1981.0127593294096,29273.096236359626,8535.527710381473,16041.064684517944,10992.409109164371,0.0,0.0,0.0,2019-03-17T21:25:34.981322,12,EyesOpen
-18423.201849842295,-9561.875112280264,6749.533921424619,-1845.8070571192573,29183.242223649293,9076.149353521985,15954.92106138719,11073.590645026046,0.0,0.0,0.0,2019-03-17T21:25:34.982080,12,EyesOpen
-18513.748766630742,-9659.731049505597,6618.7091611277065,-1988.2547245329292,29061.581678579056,9087.772260638745,15837.574402996828,10947.303288853562,0.0,0.0,0.0,2019-03-17T21:25:34.988706,12,EyesOpen
-18421.011378885672,-9536.684696279133,6613.791777347538,-2143.8452176863216,29140.99742662876,8547.061210520413,15909.323502698364,10849.492055117138,0.0,0.0,0.0,2019-03-17T21:25:34.989343,12,EyesOpen
-18305.43050830728,-9418.891002999664,6755.3006714940875,-2014.227451589996,29278.37124805108,8468.248959571,16039.522414150528,10964.9388152288,0.0,0.0,0.0,2019-03-17T21:25:34.996755,12,EyesOpen
-18388.78016338112,-9511.538983766912,6779.574665972551,-1840.5096936833495,29219.4967531558,8999.460518295828,15984.403012323739,11078.552732295124,0.0,0.0,0.0,2019-03-17T21:25:34.997443,12,EyesOpen
-18535.65347619694,-9660.803933239453,6648.369926019898,-1944.7582298229015,29079.08309448756,9150.71477302489,15849.487882791505,10978.349861901983,0.0,0.0,0.0,2019-03-17T21:25:35.004785,12,EyesOpen
-18453.332001368046,-9573.341557185837,6604.180527231757,-2130.635336713235,29123.89834212045,8644.559519834462,15889.564560599872,10856.10817147591,0.004,1.022,0.18,2019-03-17T21:25:35.005611,12,EyesOpen
-18311.465479310213,-9417.214622165517,6728.90326129237,-2054.3264811428166,29268.961163635395,8427.457025940064,16026.625457599815,10936.216823603729,0.0,0.0,0.0,2019-03-17T21:25:35.011321,12,EyesOpen
-18364.774389836122,-9473.317500748337,6791.264628322677,-1856.2453217798857,29252.84555588312,8908.24304917372,16016.522469106016,11076.7645927387,0.0,0.0,0.0,2019-03-17T21:25:35.012210,12,EyesOpen
-18507.33381597207,-9648.264604600025,6677.270731600611,-1907.9672584494663,29105.346394222546,9187.662206609513,15875.974699971046,11012.7491966187,0.0,0.0,0.0,2019-03-17T21:25:35.019399,12,EyesOpen
-18470.49814110972,-9607.942057602651,6599.3078469405,-2118.632449940735,29101.27837673168,8739.219157602687,15869.202121401087,10859.8632645444,0.0,0.0,0.0,2019-03-17T21:25:35.020297,12,EyesOpen
-18319.735624758676,-9437.733523575489,6710.75364479466,-2087.5635251478584,29253.717273916875,8400.299656426867,16011.023939970011,10904.67851217729,0.0,0.0,0.0,2019-03-17T21:25:35.026579,12,EyesOpen
-18332.72198828721,-9458.29712847437,6802.664017994884,-1872.8973713990895,29277.387771295045,8806.229687479698,16031.676951846714,11056.893891917933,0.0,0.0,0.0,2019-03-17T21:25:35.034183,12,EyesOpen
-18482.65749009341,-9617.150976318238,6708.406711626853,-1868.0917463411984,29131.609693957533,9197.564029403215,15895.264255435975,11032.105807316997,0.0,0.0,0.0,2019-03-17T21:25:35.034842,12,EyesOpen
-18485.540865128143,-9625.242307811059,6602.012408019592,-2077.616998865247,29091.443609171347,8846.507530988161,15857.80273172888,10874.280139718074,0.0,0.0,0.0,2019-03-17T21:25:35.041000,12,EyesOpen
-18345.663648326834,-9468.690689646088,6675.03555715508,-2108.8200341248553,29230.471459683355,8405.2840954404,15988.091050158866,10871.307357705517,0.0,0.0,0.0,2019-03-17T21:25:35.041648,12,EyesOpen
-18319.333293358482,-9440.348677676759,6789.565895744074,-1900.3453135902064,29295.85031221513,8705.982113597645,16048.46311193265,11031.904641616899,0.016,1.022,0.186,2019-03-17T21:25:35.048878,12,EyesOpen
-18470.386382387445,-9606.399787235236,6717.906203020359,-1851.976138588922,29161.113996638538,9174.899360525533,15921.684017382147,11044.175749322862,0.0,0.0,0.0,2019-03-17T21:25:35.049737,12,EyesOpen
-18516.632141665476,-9649.538654033979,6596.245657950122,-2052.136010186197,29086.973260280283,8944.274061235674,15852.728885737526,10891.803907371033,0.0,0.0,0.0,2019-03-17T21:25:35.056918,12,EyesOpen
-18369.44590442728,-9484.940407865097,6649.040478353558,-2133.18343558114,29214.624072864543,8442.85737786977,15967.996831893544,10856.778723809568,0.0,0.0,0.0,2019-03-17T21:25:35.057562,12,EyesOpen
-18302.81535420601,-9422.869613512708,6778.3676717719645,-1942.3665931661837,29309.686042032965,8611.70245548516,16054.56513816895,11005.104900014985,0.0,0.0,0.0,2019-03-17T21:25:35.064736,12,EyesOpen
-18440.680914006345,-9573.855647308308,6734.960584039758,-1845.2259117634192,29192.004107475772,9129.882947192544,15946.561508960905,11054.815179683588,0.0,0.0,0.0,2019-03-17T21:25:35.065171,12,EyesOpen
-18526.71277841482,-9658.367593093824,6596.469175394675,-2026.2750418514065,29081.027696255172,9025.053265697154,15841.553013509872,10904.700863921746,0.0,0.0,0.0,2019-03-17T21:25:35.073043,12,EyesOpen
-18404.605198455476,-9509.080291876828,6620.877280339871,-2145.119267120274,29188.15960742946,8494.735776750538,15941.174738547175,10841.445427113227,0.0,0.0,0.0,2019-03-17T21:25:35.073745,12,EyesOpen
-18307.464517052715,-9422.087302456774,6749.28805223561,-1991.0263408453873,29301.885283218064,8522.608402086307,16047.45728343216,10972.583111832513,0.0,0.0,0.0,2019-03-17T21:25:35.079635,12,EyesOpen
-18401.02891934263,-9544.910138238685,6751.0761917920345,-1843.7283448849137,29221.575465390142,9067.208655739863,15972.087201128865,11066.169865866885,0.0,0.0,0.0,2019-03-17T21:25:35.080277,12,EyesOpen
-18529.417339493913,-9669.789334510486,6614.998771548125,-1987.2935995213509,29087.979088780772,9105.027807358243,15845.79984495638,10940.486006794692,0.014,1.022,0.178,2019-03-17T21:25:35.086508,12,EyesOpen
-18431.89667843541,-9561.316318668882,6591.440032892231,-2161.301930105916,29147.77000519872,8560.896940338247,15897.700595581604,10826.357999605894,0.0,0.0,0.0,2019-03-17T21:25:35.087191,12,EyesOpen
-18299.753165215632,-9420.992066978462,6728.098598491979,-2039.3731641022164,29291.04468715724,8454.524988475441,16031.051103001966,10937.513224782137,0.0,0.0,0.0,2019-03-17T21:25:35.093545,12,EyesOpen
-18385.270939501635,-9527.676943263645,6759.659261662872,-1862.9284933720226,29237.6016661646,8976.527628484682,15984.760640235025,11054.345793050026,0.0,0.0,0.0,2019-03-17T21:25:35.100845,12,EyesOpen
-18522.220077779304,-9665.408392597246,6638.937489859759,-1953.7883345828457,29098.48440867477,9160.504837096314,15852.99710667099,10965.475257095726,0.0,0.0,0.0,2019-03-17T21:25:35.101166,12,EyesOpen
-18465.916033496385,-9594.6651213962,6587.483774123642,-2151.4001073122154,29131.34147302407,8661.18921770921,15879.774496528447,10832.95176422021,0.0,0.0,0.0,2019-03-17T21:25:35.108970,12,EyesOpen
-18322.887220726876,-9434.693686329567,6708.451415115764,-2086.5576966473695,29283.08746613115,8415.565897889841,16017.237724928586,10906.645465689358,0.0,0.0,0.0,2019-03-17T21:25:35.109305,12,EyesOpen
-18360.438151411792,-9493.21055331356,6776.713642682272,-1884.5426302603043,29277.164253850493,8884.572551795549,16012.812079526435,11051.32830754856,0.0,0.0,0.0,2019-03-17T21:25:35.116416,12,EyesOpen
-18515.112223042517,-9662.346203606869,6659.076411613991,-1933.2470814284184,29122.825458386596,9183.616540863102,15870.14089466821,10991.872667297444,0.0,0.0,0.0,2019-03-17T21:25:35.117056,12,EyesOpen
-18483.70802208281,-9619.676723441687,6577.961930985682,-2137.18439783864,29118.37746123999,8761.816771247002,15868.352755111786,10847.927433005267,0.0,0.0,0.0,2019-03-17T21:25:35.123921,12,EyesOpen
-18319.355645102936,-9442.986183522486,6685.965560193725,-2116.08435107283,29270.4587305139,8403.004217505959,16007.805288768446,10886.797116613045,0.008,1.022,0.168,2019-03-17T21:25:35.124814,12,EyesOpen
-18315.824069478997,-9445.042544012374,6789.297674810609,-1898.9148019450668,29303.449905329933,8788.84003029347,16040.684704862202,11044.063990600585,0.0,0.0,0.0,2019-03-17T21:25:35.132044,12,EyesOpen
-18484.177408716372,-9631.299630558447,6692.179345152301,-1891.7175402304579,29151.413339544935,9194.904171813032,15900.986302016534,11023.299220001605,0.0,0.0,0.0,2019-03-17T21:25:35.132757,12,EyesOpen
-18501.3659002025,-9646.096485387861,6581.985244987637,-2102.98622882202,29096.942138307353,8862.556083507072,15847.789150212902,10860.220892455685,0.0,0.0,0.0,2019-03-17T21:25:35.139904,12,EyesOpen
-18341.61798258042,-9463.281567487904,6673.470935043209,-2123.415723254171,29247.45878546939,8423.85839508276,15989.745079248558,10868.334575692961,0.0,0.0,0.0,2019-03-17T21:25:35.140661,12,EyesOpen
-18308.269179853105,-9432.369104906214,6783.910904396881,-1920.5736423222593,29305.70743151992,8689.933561078735,16047.12200726533,11020.371141477961,0.0,0.0,0.0,2019-03-17T21:25:35.146438,12,EyesOpen
-18463.12206543947,-9602.555287188923,6712.966467495736,-1861.4309264935168,29167.372485086024,9169.534941856258,15919.135918514243,11034.51979571817,0.0,0.0,0.0,2019-03-17T21:25:35.147385,12,EyesOpen
-18522.555353946133,-9656.981784937596,6592.892896281826,-2053.0524317088643,29086.392114924445,8962.177808544375,15841.642420487693,10880.069241531997,0.0,0.0,0.0,2019-03-17T21:25:35.153632,12,EyesOpen
-18382.946358078287,-9512.477757034036,6634.310678757511,-2153.2329503575506,29203.35879365907,8440.488092957508,15952.238852052553,10832.348267119916,0.0,0.0,0.0,2019-03-17T21:25:35.161359,12,EyesOpen
-18299.23907509316,-9421.506157100936,6772.511514724674,-1965.254779488418,29310.98244321137,8587.160240073234,16055.056876546965,10986.843524795,0.0,0.0,0.0,2019-03-17T21:25:35.162149,12,EyesOpen
-18425.057044632085,-9560.958690757596,6745.443552189297,-1851.5291036998158,29207.851494294584,9123.579755256147,15960.576052734383,11054.748124450223,0.008,1.02,0.166,2019-03-17T21:25:35.169503,12,EyesOpen
-18517.66032191042,-9662.636776284788,6610.2602017236,-2021.8940999381662,29094.237577228258,9056.45746665686,15854.04763866039,10919.765939684623,0.0,0.0,0.0,2019-03-17T21:25:35.170229,12,EyesOpen
-18391.887055860407,-9520.993771671507,6619.782044861561,-2156.541008536936,29190.39478187499,8517.959239239603,15942.605250192315,10841.803055024511,0.0,0.0,0.0,2019-03-17T21:25:35.176270,12,EyesOpen
-18280.642423706344,-9407.089281927263,6753.020793559646,-2005.6220299747026,29310.066021688704,8521.759035797004,16052.620536401337,10963.93298672831,0.0,0.0,0.0,2019-03-17T21:25:35.177171,12,EyesOpen
-18397.631454185423,-9529.643896775711,6756.57472092804,-1857.362909002651,29229.17505850495,9057.910330046456,15974.523541274493,11053.362316293993,0.0,0.0,0.0,2019-03-17T21:25:35.184145,12,EyesOpen
-18511.647702651942,-9644.53186327599,6633.863643868404,-1980.8339453737672,29105.346394222546,9133.9062611945,15855.27698460543,10941.536538784092,0.0,0.0,0.0,2019-03-17T21:25:35.185040,12,EyesOpen
-18417.45745151728,-9552.487379609034,6609.366131945388,-2159.089107404841,29160.666961749434,8592.099975597856,15905.277836951953,10821.641781525825,0.0,0.0,0.0,2019-03-17T21:25:35.192102,12,EyesOpen
-18294.99224364665,-9419.539203588869,6748.461037690764,-2048.000937461965,29300.27595761728,8454.636747197717,16033.88977454779,10920.458843762737,0.0,0.0,0.0,2019-03-17T21:25:35.192769,12,EyesOpen
-18366.182549736805,-9490.662454445655,6794.930314413347,-1854.5018857123716,29265.02725661126,8976.438221506862,15999.333977619885,11049.227243569761,0.0,0.0,0.0,2019-03-17T21:25:35.199438,12,EyesOpen
-18491.195856475337,-9629.869118913308,6669.380565807887,-1934.0293924843543,29120.344414752057,9179.14619197204,15862.720115509048,10962.211902405252,0.0,0.0,0.0,2019-03-17T21:25:35.200174,12,EyesOpen
-18431.159070868383,-9572.626301363267,6607.957972044704,-2133.8539879147993,29140.215115572824,8683.540962164518,15884.401307630696,10823.698142015714,0.002,1.018,0.164,2019-03-17T21:25:35.206863,12,EyesOpen
-18286.85620866492,-9417.14756693215,6726.779845569115,-2071.1349929732078,29290.754114479318,8420.349171203277,16027.675989589214,10895.78251788408,0.0,0.0,0.0,2019-03-17T21:25:35.207564,12,EyesOpen
-18331.827918509,-9461.202855253561,6792.829250434548,-1870.326920786729,29284.808550454207,8873.28492084562,16024.21146919864,11039.034848098141,0.0,0.0,0.0,2019-03-17T21:25:35.213829,12,EyesOpen
-18478.07538248007,-9622.358932776324,6684.244475870666,-1905.4415113260166,29139.991598128272,9195.239447979862,15888.268159421465,10988.251684695684,0.0,0.0,0.0,2019-03-17T21:25:35.221831,12,EyesOpen
-18445.799463486608,-9601.32594124388,6601.006579519103,-2115.1008743167968,29128.122821822504,8780.748698800648,15875.52766508194,10837.489168344639,0.0,0.0,0.0,2019-03-17T21:25:35.222622,12,EyesOpen
-18300.6695867383,-9437.48765438648,6702.528202835108,-2109.0435515694085,29279.17591085147,8402.04309249438,16017.88592551779,10868.893369304344,0.0,0.0,0.0,2019-03-17T21:25:35.228988,12,EyesOpen
-18310.124374642895,-9438.046447997862,6800.428843549353,-1905.4638630704717,29313.776411268285,8765.325995126486,16052.553481167972,11022.449853712304,0.0,0.0,0.0,2019-03-17T21:25:35.229636,12,EyesOpen
-18467.726524797265,-9604.343426745347,6710.8654035169375,-1890.5105460298714,29168.5347757977,9188.690386854458,15917.034854535445,11010.961057062275,0.0,0.0,0.0,2019-03-17T21:25:35.236380,12,EyesOpen
-18489.40771691891,-9625.041142110962,6592.78113755955,-2099.9463915760984,29111.4707722033,8878.716394748259,15864.105923665276,10852.263671429595,0.0,0.0,0.0,2019-03-17T21:25:35.237351,12,EyesOpen
-18335.515956344123,-9465.382631466702,6667.055984384535,-2143.1970170971176,29252.912611116484,8412.928392044114,15994.461297328628,10847.05571497151,0.0,0.0,0.0,2019-03-17T21:25:35.244323,12,EyesOpen
-18291.90770291182,-9432.793788050865,6787.241314320721,-1941.4501716435161,29321.51011484982,8667.358299178875,16059.884853349311,11005.686045370823,-0.002,1.016,0.17,2019-03-17T21:25:35.244886,12,EyesOpen
-18439.675085505856,-9585.791478847443,6720.364894910443,-1871.1986388204862,29185.00801146126,9164.8634272651,15933.038703565444,11029.669467171369,0.0,0.0,0.0,2019-03-17T21:25:35.253402,12,EyesOpen
-18503.17639150338,-9642.743723719565,6584.712157811184,-2065.904684770666,29086.794446324642,8980.483887253271,15840.033094886912,10868.558093137515,0.0,0.0,0.0,2019-03-17T21:25:35.254058,12,EyesOpen
-18372.73161086221,-9495.35632078127,6624.0512280525245,-2168.3650813537934,29202.084744225114,8457.944805377103,15949.690753184648,10817.99844717961,0.0,0.0,0.0,2019-03-17T21:25:35.259800,12,EyesOpen
-18295.327519813483,-9408.542145316856,6761.648566919394,-1991.0263408453873,29309.95426296643,8579.18066730269,16050.698286378181,10963.17302741683,0.0,0.0,0.0,2019-03-17T21:25:35.260424,12,EyesOpen
-18418.08330036203,-9545.6030423168,6736.480502662719,-1874.9984353778882,29205.77278206024,9114.057912118187,15952.328259030373,11027.478996214748,0.0,0.0,0.0,2019-03-17T21:25:35.267185,12,EyesOpen
-18507.155002016425,-9645.4259330542,6600.11250974089,-2032.1982541320629,29088.292013203147,9070.896693574989,15843.698780977582,10893.167363782808,0.0,0.0,0.0,2019-03-17T21:25:35.268012,12,EyesOpen
-18385.226236012728,-9517.395140814202,6609.030855778558,-2166.487534819548,29178.660116035953,8530.1632917122,15930.222383764076,10810.66707499827,0.0,0.0,0.0,2019-03-17T21:25:35.273637,12,EyesOpen
-18265.62205143238,-9394.102918398728,6752.596110414996,-2011.7240562110017,29311.541236822755,8514.584125826852,16054.22986200212,10940.709524239246,0.0,0.0,0.0,2019-03-17T21:25:35.281407,12,EyesOpen
-18376.240834741693,-9503.090024362806,6762.877912864436,-1856.781763646813,29238.965122576374,9045.84038804059,15985.945282691157,11039.593641709524,0.0,0.0,0.0,2019-03-17T21:25:35.282064,12,EyesOpen
-18498.817801334597,-9629.444435768657,6632.522539201086,-1981.2809802628733,29105.502856433734,9135.850862962112,15856.238109617008,10925.666800220824,0.004,1.016,0.178,2019-03-17T21:25:35.289149,12,EyesOpen
-18407.82384965704,-9537.802283501898,6601.453614408209,-2160.1172876497853,29158.945877426373,8605.265153082031,15904.249656707008,10808.342493574917,0.0,0.0,0.0,2019-03-17T21:25:35.289946,12,EyesOpen
-18268.773647400576,-9391.6665782531,6740.973203298236,-2050.7054985410573,29306.80266699823,8450.747543662494,16047.03260028751,10910.244096546663,0.0,0.0,0.0,2019-03-17T21:25:35.296555,12,EyesOpen
-18339.651029068355,-9464.44385819958,6788.649474221405,-1858.3463857586844,29273.252698570814,8958.065087564599,16016.433062128195,11039.548938220614,0.0,0.0,0.0,2019-03-17T21:25:35.297388,12,EyesOpen
-18486.099658739528,-9623.409464765724,6659.724612203195,-1937.8291890417563,29124.255970031736,9179.593226861147,15875.9970517155,10957.987422703198,0.0,0.0,0.0,2019-03-17T21:25:35.304130,12,EyesOpen
-18427.918067922365,-9569.050022250418,6595.239829449633,-2137.8773019167547,29144.5290022527,8702.428186229252,15893.409060646185,10821.66413327028,0.0,0.0,0.0,2019-03-17T21:25:35.305105,12,EyesOpen
-18275.143894570338,-9411.425520351591,6711.312438406043,-2090.1339757602186,29296.476161059876,8412.66017111065,16032.414559413739,10881.58916015496,0.0,0.0,0.0,2019-03-17T21:25:35.312040,12,EyesOpen
-18327.648142295857,-9457.738334862988,6789.297674810609,-1889.9294006740333,29296.900844204527,8848.049801355577,16034.023885014522,11024.886193857932,0.0,0.0,0.0,2019-03-17T21:25:35.312679,12,EyesOpen
-18474.923786511874,-9629.399732279746,6688.312493361533,-1909.3083631167847,29154.095548879573,9191.730224100378,15897.454726392596,10980.473277625237,0.0,0.0,0.0,2019-03-17T21:25:35.320088,12,EyesOpen
-18462.339754383534,-9615.966333862107,6596.804451561506,-2115.2126330390734,29131.185010812882,8792.237495450676,15876.24292090451,10823.139348404331,0.0,0.0,0.0,2019-03-17T21:25:35.320739,12,EyesOpen
-18307.643331008356,-9442.740314333478,6695.84503124297,-2116.1067028172856,29279.578242251664,8392.029510978402,16018.914105762733,10848.754447550113,0.006,1.024,0.17,2019-03-17T21:25:35.326747,12,EyesOpen
-18302.94946467274,-9433.978430506997,6798.9759801597575,-1910.1577294060862,29318.313815392714,8739.77795121407,16056.666202147748,11002.377987191438,0.0,0.0,0.0,2019-03-17T21:25:35.327452,12,EyesOpen
-18449.37574259946,-9595.939170830152,6727.629211858418,-1873.0091301213658,29182.437560848903,9188.042186265253,15926.266124995485,10998.958170289776,0.0,0.0,0.0,2019-03-17T21:25:35.333917,12,EyesOpen
-18476.22018769028,-9618.983819363573,6610.97545754617,-2077.6840540986127,29116.76813563921,8901.805746770591,15866.274042877441,10836.304525888507,0.0,0.0,0.0,2019-03-17T21:25:35.334683,12,EyesOpen
-18326.172927161806,-9457.894797074176,6674.141487376868,-2135.0833338598413,29247.436433724935,8421.2879444704,15992.539047305472,10818.266668113074,0.0,0.0,0.0,2019-03-17T21:25:35.341749,12,EyesOpen
-18272.975775358176,-9397.47803181148,6800.540602271629,-1937.6727268305692,29327.075699219193,8649.633365825817,16065.808065629968,10973.83480952201,0.0,0.0,0.0,2019-03-17T21:25:35.348790,12,EyesOpen
-18415.959884638774,-9559.774048301464,6745.778828356127,-1860.8274293932236,29199.067258723648,9153.531092826259,15945.086293826855,11005.820155837555,0.0,0.0,0.0,2019-03-17T21:25:35.349580,12,EyesOpen
-18479.483542380756,-9633.959488148628,6611.623658135374,-2049.7220217850236,29099.244367986248,8995.68307348288,15852.70653399307,10853.71653481919,0.0,0.0,0.0,2019-03-17T21:25:35.356302,12,EyesOpen
-18338.712255801234,-9481.252370029972,6647.319394030499,-2155.5798835253577,29213.35002343059,8466.371413036753,15960.687811456659,10799.670016726259,0.0,0.0,0.0,2019-03-17T21:25:35.357044,12,EyesOpen
-18265.107961309906,-9388.313816584805,6784.492049752718,-1980.3422069957505,29325.578132340688,8560.2710914935,16066.925652852733,10945.157521385852,0.0,0.0,0.0,2019-03-17T21:25:35.364256,12,EyesOpen
-18384.846256356985,-9514.847041946297,6768.510552467174,-1851.7079176554582,29229.800907349698,9101.56328696767,15980.223236110598,11025.08735955803,0.01,1.026,0.178,2019-03-17T21:25:35.365269,12,EyesOpen
-18473.22505393327,-9610.490156470556,6637.752847403628,-2004.3926840296608,29112.163676281416,9085.470030959848,15870.81144700187,10898.621189429903,0.0,0.0,0.0,2019-03-17T21:25:35.372414,12,EyesOpen
-18374.49739867418,-9502.710044707066,6622.30779198501,-2167.9851016980533,29181.05175269267,8529.895070778737,15933.753959388014,10793.098603856399,0.0,0.0,0.0,2019-03-17T21:25:35.373058,12,EyesOpen
-18248.232394246148,-9368.37606053067,6768.510552467174,-2023.0116871609316,29320.83956251616,8487.382052824743,16062.634117917314,10918.178965828296,0.0,0.0,0.0,2019-03-17T21:25:35.381787,12,EyesOpen
-18321.970799204206,-9469.025965812918,6797.970151659269,-1849.9644815879444,29263.283820543747,9032.250527411763,16009.83929751388,11033.424560239859,0.0,0.0,0.0,2019-03-17T21:25:35.382532,12,EyesOpen
-18466.56423408559,-9611.116005315305,6670.252283841644,-1961.522038164382,29129.307464278638,9158.359069628605,15884.311900652874,10930.11479736743,0.0,0.0,0.0,2019-03-17T21:25:35.387980,12,EyesOpen
-18388.646052914388,-9524.391236828713,6635.070638068991,-2140.0454211289193,29182.191691659893,8643.486636100608,15931.742302387036,10810.71177848718,0.0,0.0,0.0,2019-03-17T21:25:35.388870,12,EyesOpen
-18238.66584761928,-9377.987310646453,6766.990633844213,-2043.7541060154565,29335.345844667656,8462.884540901727,16074.65935643427,10905.930209866789,0.0,0.0,0.0,2019-03-17T21:25:35.394993,12,EyesOpen
-18316.58402879048,-9462.990994809985,6809.146023886922,-1865.945978873489,29301.32648960668,8947.313898481596,16040.528242651017,11028.708342159789,0.0,0.0,0.0,2019-03-17T21:25:35.395764,12,EyesOpen
-18473.739144055744,-9625.756397933532,6684.579752037496,-1944.132380978153,29147.032397631694,9188.019834520797,15893.610226346282,10945.962184186243,0.0,0.0,0.0,2019-03-17T21:25:35.402329,12,EyesOpen
-18441.396169828913,-9571.486362396046,6603.062940008991,-2158.8208864713774,29147.658246476443,8714.609886957394,15892.984377501534,10791.109298599875,0.006,1.024,0.176,2019-03-17T21:25:35.408429,12,EyesOpen
-18285.112772597407,-9411.894906985153,6719.180252454312,-2115.6596679281793,29303.114629163105,8404.501784384463,16035.901431548768,10845.222871926175,0.0,0.0,0.0,2019-03-17T21:25:35.409139,12,EyesOpen
-18305.09523214045,-9447.612994624735,6810.911811698892,-1904.4133310810723,29316.548027580742,8827.061513312045,16047.8372630879,10993.16906847585,0.0,0.0,0.0,2019-03-17T21:25:35.416477,12,EyesOpen
-18456.75181826971,-9611.943019860151,6711.714769806239,-1917.9808399654437,29166.590174030087,9189.472697910393,15905.121374740766,10952.757114500657,0.0,0.0,0.0,2019-03-17T21:25:35.417407,12,EyesOpen
-18450.068646677573,-9599.940133087652,6613.992943047637,-2125.740304677523,29131.117955579517,8808.733082858693,15874.164208670165,10795.065557368465,0.0,0.0,0.0,2019-03-17T21:25:35.424433,12,EyesOpen
-18294.589912246458,-9430.290392671872,6699.8906969893815,-2139.1066478617963,29274.6608584715,8390.017853977424,16008.900524246756,10808.543659275016,0.0,0.0,0.0,2019-03-17T21:25:35.425396,12,EyesOpen
-18290.790115689055,-9423.517814101913,6805.390930818431,-1937.8515407862117,29321.733632294374,8709.558392710494,16051.592356156392,10960.736687271201,0.0,0.0,0.0,2019-03-17T21:25:35.431667,12,EyesOpen
-18435.31649533707,-9580.51646715599,6733.1724444833335,-1897.0149036663656,29188.986621974305,9167.85856102211,15928.322485485374,10971.130248442918,0.0,0.0,0.0,2019-03-17T21:25:35.432312,12,EyesOpen
-18465.37959162946,-9613.03825533846,6615.624620392874,-2092.771481605945,29123.13838280897,8911.037017230632,15870.0961911793,10823.049941426509,0.0,0.0,0.0,2019-03-17T21:25:35.439090,12,EyesOpen
-18319.757976503133,-9452.373916193714,6671.839257697971,-2158.060927159897,29249.448090725913,8419.298639213877,15992.15906764973,10798.32891205894,0.0,0.0,0.0,2019-03-17T21:25:35.439726,12,EyesOpen
-18269.354792756414,-9397.47803181148,6798.9759801597575,-1963.4666399319935,29332.70833882193,8621.112539900845,16072.781809900023,10953.897053467877,0.002,1.02,0.17,2019-03-17T21:25:35.447250,12,EyesOpen
-18409.50023049119,-9552.196806931115,6760.352165740987,-1870.9304178870225,29215.048756009193,9140.81295023119,15963.59353823585,11001.953304046787,0.0,0.0,0.0,2019-03-17T21:25:35.448223,12,EyesOpen
-18475.862559778998,-9623.990610121562,6633.237795023656,-2049.8561322517553,29118.355109495536,9013.184489391386,15872.443124347106,10857.449276143227,0.0,0.0,0.0,2019-03-17T21:25:35.455491,12,EyesOpen
-18345.194261693272,-9474.412736226646,6655.634242967873,-2170.1979243991286,29222.536590401724,8470.484134016531,15970.16495110571,10788.47179275415,0.0,0.0,0.0,2019-03-17T21:25:35.456299,12,EyesOpen
-18247.070103534475,-9388.582037518268,6794.751500457704,-2000.9505153835435,29340.218524958913,8537.941698782646,16080.046126848,10929.578355500504,0.0,0.0,0.0,2019-03-17T21:25:35.461454,12,EyesOpen
-18361.891014801386,-9516.143443124705,6792.091642867523,-1861.2521125378744,29254.186660550436,9088.398109483494,16004.251361400053,11018.337132732528,0.0,0.0,0.0,2019-03-17T21:25:35.468894,12,EyesOpen
-18476.980147001763,-9625.599935722345,6658.897597658348,-2011.2770213218955,29128.011063100228,9092.935513607921,15886.658833820682,10889.456974203227,0.0,0.0,0.0,2019-03-17T21:25:35.469794,12,EyesOpen
-18374.16212250735,-9507.962704654063,6652.549702233041,-2162.7771452399666,29205.77278206024,8553.319698967898,15962.744171946548,10792.785679434024,0.0,0.0,0.0,2019-03-17T21:25:35.476759,12,EyesOpen
-18258.491844951135,-9380.602464747722,6785.162602086378,-2032.1759023876075,29338.117460980116,8480.67652948815,16088.428031018739,10907.651294189847,0.0,0.0,0.0,2019-03-17T21:25:35.477622,12,EyesOpen
-18359.521729889122,-9481.475887474524,6806.419111063375,-1866.7282899294246,29275.376114294068,9006.948352688356,16029.352370423363,11015.319647231061,0.0,0.0,0.0,2019-03-17T21:25:35.484828,12,EyesOpen
-18487.261949451204,-9625.085845599871,6677.2260281117,-1970.3286254797729,29137.376444027002,9150.223034646873,15895.823049047358,10912.769843670112,0.004,1.022,0.17400000000000002,2019-03-17T21:25:35.485716,12,EyesOpen
-18412.897695648397,-9552.286213908937,6630.555585689019,-2158.083278904352,29178.369543358036,8631.32728711692,15933.552793687915,10784.716699685658,0.0,0.0,0.0,2019-03-17T21:25:35.491390,12,EyesOpen
-18257.821292617475,-9384.089336882751,6760.709793652272,-2070.5538476173697,29328.886190520072,8427.300563728877,16074.122914567342,10870.837971071956,0.0,0.0,0.0,2019-03-17T21:25:35.492115,12,EyesOpen
-18311.66664501031,-9445.668392857122,6821.908869970903,-1871.8021359207794,29313.307024634723,8919.061293490087,16059.437818460205,11010.491670428715,0.0,0.0,0.0,2019-03-17T21:25:35.499702,12,EyesOpen
-18465.357239885,-9608.277333769482,6702.125871434912,-1927.7038488035023,29162.410397816944,9193.518363656804,15919.605305147805,10942.54236728458,0.0,0.0,0.0,2019-03-17T21:25:35.500405,12,EyesOpen
-18435.517661037167,-9572.715708341088,6623.559489674508,-2136.0221071269643,29159.705836737852,8738.034515146555,15915.403177190206,10791.176353833242,0.0,0.0,0.0,2019-03-17T21:25:35.507562,12,EyesOpen
-18277.826103904976,-9412.38664536317,6741.1520172538785,-2097.13007177473,29316.5703793252,8411.631990865706,16060.197777771686,10844.462912614694,0.0,0.0,0.0,2019-03-17T21:25:35.508480,12,EyesOpen
-18294.701670968734,-9445.131950990195,6829.419056107886,-1890.3764355631395,29333.155373711037,8819.528975430605,16075.843998890401,10995.873629554944,0.0,0.0,0.0,2019-03-17T21:25:35.514250,12,EyesOpen
-18453.01907694567,-9614.133490816772,6728.992668270192,-1903.1616333915752,29180.49295908129,9201.766157360811,15933.731607643558,10961.943681471788,0.0,0.0,0.0,2019-03-17T21:25:35.515118,12,EyesOpen
-18467.435952119347,-9609.104348314328,6630.533233944564,-2113.51390046047,29143.366711541024,8844.629984453915,15897.834706048336,10806.04026389602,0.0,0.0,0.0,2019-03-17T21:25:35.521271,12,EyesOpen
-18305.877543196388,-9438.895814287163,6716.453339630764,-2135.3292030488496,29289.36830632309,8414.962400789547,16032.705132091658,10818.087854157431,0.006,1.022,0.176,2019-03-17T21:25:35.529027,12,EyesOpen
-18267.968984600186,-9401.791918491355,6844.618242337495,-1920.4395318555275,29360.268039735325,8728.892651664335,16098.486316023627,10987.804649806578,0.0,0.0,0.0,2019-03-17T21:25:35.529814,12,EyesOpen
-18413.50119274869,-9562.836237291842,6780.58049447304,-1867.0635660962544,29225.01763403626,9200.000369548843,15972.690698229158,11003.048539525098,0.0,0.0,0.0,2019-03-17T21:25:35.537011,12,EyesOpen
-18477.918920268887,-9619.006171108029,6639.272766026588,-2078.0416820098976,29131.05090034615,8947.045677548133,15886.167095442665,10835.09753168792,0.0,0.0,0.0,2019-03-17T21:25:35.537656,12,EyesOpen
-18328.072825440508,-9454.16205575014,6693.60985679744,-2154.6187585137795,29255.773634406763,8440.264575512956,16000.920951476211,10803.670978983759,0.0,0.0,0.0,2019-03-17T21:25:35.543771,12,EyesOpen
-18250.221699502672,-9391.733633486467,6830.380181119464,-1961.38792769765,29349.203926229948,8615.94928693167,16083.33183328293,10955.506379068658,0.0,0.0,0.0,2019-03-17T21:25:35.544628,12,EyesOpen
-18389.83069537052,-9538.875167235752,6795.176183602355,-1856.9829293469109,29237.199334764402,9134.286240850239,15978.233930854076,11008.234144238728,0.0,0.0,0.0,2019-03-17T21:25:35.553193,12,EyesOpen
-18475.41552488989,-9621.6213252093,6665.4913622726635,-2025.1798063730964,29133.286074791682,9029.724780288314,15881.897912251701,10869.9662530382,0.0,0.0,0.0,2019-03-17T21:25:35.553836,12,EyesOpen
-18350.715142573732,-9485.409794498659,6681.785783980583,-2149.6566712447016,29227.275160226247,8484.63278825674,15971.796628450946,10798.440670781216,0.0,0.0,0.0,2019-03-17T21:25:35.559833,12,EyesOpen
-18241.99625754312,-9373.584016988756,6828.167358418389,-1975.4471749600382,29357.04938853376,8534.097198736334,16092.719565954158,10946.588033030992,0.0,0.0,0.0,2019-03-17T21:25:35.560472,12,EyesOpen
-18364.752038091665,-9497.278570804427,6825.306335128109,-1830.4067051895506,29270.70459970291,9075.255283743774,16011.113346947832,11038.252537042206,0.006,1.028,0.17,2019-03-17T21:25:35.566975,12,EyesOpen
-18482.076344737572,-9613.529993716478,6691.352330607454,-1969.836887101756,29137.421147515914,9110.727502194346,15887.821124532358,10916.97197162771,0.0,0.0,0.0,2019-03-17T21:25:35.567739,12,EyesOpen
-18381.31468073305,-9504.676998219133,6669.626434996896,-2136.4691420160702,29201.503598869276,8569.927045098191,15946.606212449815,10812.678731999247,0.0,0.0,0.0,2019-03-17T21:25:35.574457,12,EyesOpen
-18249.059408790996,-9377.763793201899,6805.435634307341,-2015.1662248571188,29341.537277881776,8469.321843304855,16076.022812846044,10925.242117076174,0.0,0.0,0.0,2019-03-17T21:25:35.575097,12,EyesOpen
-18332.43141560929,-9464.935596577598,6846.652251082927,-1831.591347645682,29297.28082386027,8998.454689795339,16035.901431548768,11050.836569170544,0.0,0.0,0.0,2019-03-17T21:25:35.581649,12,EyesOpen
-18460.551614827113,-9608.880830869773,6726.824549058027,-1921.71358128948,29159.10233963756,9180.8672762951,15906.037796263434,10963.731821028212,0.0,0.0,0.0,2019-03-17T21:25:35.582290,12,EyesOpen
-18393.87636111693,-9536.215309645571,6670.1852286082785,-2117.9171941181653,29184.5386248277,8677.036604528023,15929.417720963684,10830.828348496956,0.0,0.0,0.0,2019-03-17T21:25:35.589472,12,EyesOpen
-18260.570557185478,-9389.587866018757,6783.530924741141,-2056.3381381437944,29321.84539101665,8432.95555507607,16058.253176004075,10900.230515030684,0.0,0.0,0.0,2019-03-17T21:25:35.596601,12,EyesOpen
-18302.502429783635,-9433.86667178472,6852.575463363584,-1848.0869350536987,29316.682138047476,8911.305238164095,16054.27456549103,11049.51781624768,0.0,0.0,0.0,2019-03-17T21:25:35.597511,12,EyesOpen
-18439.764492483675,-9582.729289857065,6747.723430123739,-1879.781708691324,29178.280136380214,9217.702951157446,15922.511031926995,11000.500440657192,0.0,0.0,0.0,2019-03-17T21:25:35.604069,12,EyesOpen
-18410.662521202867,-9550.498074352512,6664.3737750498985,-2087.675283870135,29168.78064498671,8780.346367400452,15910.552848643405,10847.390991138338,0.0,1.02,0.17400000000000002,2019-03-17T21:25:35.604782,12,EyesOpen
-18258.22362401767,-9387.889133440154,6763.324947753543,-2068.8774667832217,29315.89982699154,8422.070255526336,16046.071475275932,10882.527933422081,0.0,0.0,0.0,2019-03-17T21:25:35.612038,12,EyesOpen
-18265.599699687922,-9391.800688719832,6858.342213433053,-1858.6369584366034,29344.51005989433,8813.382245705396,16072.044202332998,11035.682086429846,0.0,0.0,0.0,2019-03-17T21:25:35.612677,12,EyesOpen
-18425.146451609904,-9548.307603395891,6765.493066965708,-1857.3405572581958,29198.888444768007,9214.707817400435,15931.608191920304,11010.692836128812,0.0,0.0,0.0,2019-03-17T21:25:35.620176,12,EyesOpen
-18431.82962320204,-9568.066545494383,6656.8635889129155,-2071.9843592625093,29153.022665145716,8872.882589445424,15886.323557653852,10852.308374918506,0.0,0.0,0.0,2019-03-17T21:25:35.620879,12,EyesOpen
-18279.99422311714,-9409.078587183785,6730.981973526714,-2108.864737613766,29289.480065045365,8421.265592725944,16016.388358639284,10854.252976686117,0.0,0.0,0.0,2019-03-17T21:25:35.626628,12,EyesOpen
-18261.75519964161,-9385.877476439176,6841.556053347118,-1910.649467784103,29346.94640003996,8692.995750069113,16070.189007543207,11007.340074460517,0.0,0.0,0.0,2019-03-17T21:25:35.627310,12,EyesOpen
-18407.60033221249,-9542.093818437317,6778.926465383347,-1846.3434989861846,29216.50161939879,9177.469811137893,15949.713104929104,11030.854109627498,0.0,0.0,0.0,2019-03-17T21:25:35.634872,12,EyesOpen
-18449.621611788465,-9594.083976040361,6655.768353434605,-2038.9484809575656,29137.823478916107,8967.877503380478,15875.728830782036,10879.130468264875,0.0,0.0,0.0,2019-03-17T21:25:35.635727,12,EyesOpen
-18298.009729148118,-9439.074628242806,6696.582638809996,-2128.757790178989,29256.466538484878,8451.038116340413,15984.268901857007,10835.05282819901,0.0,0.0,0.0,2019-03-17T21:25:35.642816,12,EyesOpen
-18227.08764399143,-9352.886301623143,6831.296602642132,-1943.9535670225105,29354.791862343773,8603.253496081054,16076.581606457426,10986.910580028365,0.0,1.014,0.18,2019-03-17T21:25:35.643446,12,EyesOpen
-18370.40702943886,-9493.367015524747,6801.009988905191,-1837.3357459706958,29244.486003456834,9134.465054805882,15975.439962797162,11048.556691236103,0.0,0.0,0.0,2019-03-17T21:25:35.649027,12,EyesOpen
-18464.12789393996,-9603.7175779006,6664.351423305443,-2007.2984108088508,29133.80016491415,9055.764562578746,15871.102019679789,10906.421948244804,0.0,0.0,0.0,2019-03-17T21:25:35.656216,12,EyesOpen
-18337.39350287837,-9473.83159087081,6675.571999022008,-2139.419572284171,29229.935017816428,8513.265372903988,15960.240776567553,10828.995505451621,0.0,0.0,0.0,2019-03-17T21:25:35.656964,12,EyesOpen
-18231.803862071498,-9358.56364471479,6816.790320490637,-1980.1857447845632,29357.585830400687,8527.794006799937,16079.286167536518,10964.603539061969,0.0,0.0,0.0,2019-03-17T21:25:35.664399,12,EyesOpen
-18344.613116337434,-9484.918056120641,6819.874861225469,-1828.2162342329307,29278.058323628706,9072.394260453495,16004.40782361124,11062.347717565026,0.0,0.0,0.0,2019-03-17T21:25:35.665292,12,EyesOpen
-18459.098751437516,-9610.4678047261,6679.41649906832,-1964.9195033215885,29141.24329581777,9132.207528615896,15875.460609848573,10941.290669595084,0.0,0.0,0.0,2019-03-17T21:25:35.672410,12,EyesOpen
-18366.853102070465,-9513.103605878783,6649.398106264843,-2140.7159734625784,29201.905930269473,8594.379853532297,15931.451729709117,10832.19180490873,0.0,0.0,0.0,2019-03-17T21:25:35.673052,12,EyesOpen
-18236.095397006917,-9367.102011096718,6781.943950884814,-2026.0068209179428,29347.862821562627,8467.489000259518,16064.869292362846,10941.424780061816,0.0,0.0,0.0,2019-03-17T21:25:35.679014,12,EyesOpen
-18314.840592722965,-9445.087247501284,6820.523061814673,-1842.946033828978,29309.015489699304,8984.641311721958,16025.64198084378,11066.23692110025,0.0,0.0,0.0,2019-03-17T21:25:35.679815,12,EyesOpen
-18448.056989676596,-9595.46978419659,6697.2308393992,-1929.2461191709185,29168.11009265305,9186.589322875658,15892.358528656785,10978.774545046634,0.002,1.016,0.178,2019-03-17T21:25:35.687030,12,EyesOpen
-18392.60231168298,-9536.88586197923,6637.574033447985,-2133.0940286033187,29186.036191706204,8689.754747123092,15909.725834098559,10834.62814505436,0.0,0.0,0.0,2019-03-17T21:25:35.687816,12,EyesOpen
-18257.508368195104,-9385.028110149875,6753.825456360038,-2078.891048299199,29329.28852192027,8420.885613070204,16044.84212933089,10896.028387073087,0.0,0.0,0.0,2019-03-17T21:25:35.694992,12,EyesOpen
-18296.84743843644,-9430.871538027708,6824.524024072173,-1875.9819121339217,29327.41097538602,8878.314063348063,16045.378571197818,11041.404133010405,0.0,0.0,0.0,2019-03-17T21:25:35.695875,12,EyesOpen
-18444.21248963028,-9587.55726665941,6716.453339630764,-1907.4755200714494,29182.415209104445,9203.688407383968,15908.0047497755,10991.73855683071,0.0,0.0,0.0,2019-03-17T21:25:35.702144,12,EyesOpen
-18420.273771318647,-9564.266748936981,6630.64499266684,-2113.6480109272015,29171.798130488176,8793.243323951165,15896.113621725277,10844.440560870238,0.0,0.0,0.0,2019-03-17T21:25:35.702782,12,EyesOpen
-18268.505426467113,-9407.268095882904,6732.9936305276915,-2101.8909933437103,29323.298254406247,8416.527022901419,16034.873251303823,10877.230569986174,0.0,0.0,0.0,2019-03-17T21:25:35.708641,12,EyesOpen
-18263.588042686944,-9404.876459226187,6833.643535809939,-1894.0868251427205,29358.43519668999,8779.49700111115,16063.863463862357,11031.032923583141,0.0,0.0,0.0,2019-03-17T21:25:35.716740,12,EyesOpen
-18432.656637746888,-9580.672929367176,6739.497988164186,-1885.6602174830698,29203.425848892435,9188.891552554554,15916.878392324257,11006.356597704482,0.0,0.0,0.0,2019-03-17T21:25:35.717513,12,EyesOpen
-18441.5526320401,-9591.021787049984,6633.7965886350385,-2088.345836203794,29153.089720379085,8880.459830815773,15874.275967392441,10853.62712784137,0.0,0.0,0.0,2019-03-17T21:25:35.725754,12,EyesOpen
-18286.699746453734,-9424.568346091311,6700.248324900666,-2137.206749583095,29285.479102787867,8412.14608098818,16002.239704399075,10844.9099475038,0.006,1.014,0.176,2019-03-17T21:25:35.726513,12,EyesOpen
-18257.55307168401,-9393.968807931997,6817.036189679646,-1939.617328598181,29350.925010553005,8662.843246798902,16065.271623763041,10998.55583888958,0.0,0.0,0.0,2019-03-17T21:25:35.732185,12,EyesOpen
-18405.901599633886,-9552.554434842401,6759.748668640694,-1868.3823190191174,29223.02832877974,9157.62146206158,15945.287459526953,11027.970734592764,0.0,0.0,0.0,2019-03-17T21:25:35.733170,12,EyesOpen
-18463.79261777313,-9615.251078039537,6621.659591395806,-2068.0728039828305,29131.4755834908,8963.72007891179,15855.791074727902,10868.28987220405,0.0,0.0,0.0,2019-03-17T21:25:35.739336,12,EyesOpen
-18319.467403825212,-9451.233977226493,6667.905350673837,-2155.5575317809025,29256.69005592943,8446.456008727075,15976.311680830919,10829.487243829637,0.0,0.0,0.0,2019-03-17T21:25:35.740721,12,EyesOpen
-18237.503556907603,-9363.682194195057,6808.319009342076,-1967.1099742782087,29365.386589215588,8573.950359100147,16083.264778049563,10984.206018949273,0.0,0.0,0.0,2019-03-17T21:25:35.747249,12,EyesOpen
-18363.746209591176,-9505.056977874872,6781.67572995135,-1846.6787751530142,29264.401407766512,9108.8499556601,15991.287349615974,11053.161150593896,0.0,0.0,0.0,2019-03-17T21:25:35.747936,12,EyesOpen
-18453.913146723884,-9598.822545864887,6646.671193441295,-2007.454873020038,29152.083891878596,9062.22421672633,15883.976624486046,10917.910744894833,0.0,0.0,0.0,2019-03-17T21:25:35.755284,12,EyesOpen
-18336.790005778075,-9485.007463098462,6650.336879531966,-2147.0862206323413,29240.30622724369,8524.038913731447,15968.44386678265,10835.209290410196,0.0,0.0,0.0,2019-03-17T21:25:35.755946,12,EyesOpen
-18221.097376477406,-9363.145752328128,6795.176183602355,-1993.2391635464626,29373.388513730588,8513.48889034854,16096.742879956113,10969.11859144194,0.0,0.0,0.0,2019-03-17T21:25:35.761921,12,EyesOpen
-18340.746264546666,-9482.437012486102,6796.561991758585,-1844.8906355965896,29293.14575113604,9047.516768874737,16024.233820943096,11063.241787343239,0.0,0.0,0.0,2019-03-17T21:25:35.762660,12,EyesOpen
-18480.891702281442,-9618.268563541003,6657.891769157859,-1978.3976052281387,29153.402644801456,9133.772150727767,15889.76572629997,10942.698829495768,0.006,1.024,0.17400000000000002,2019-03-17T21:25:35.769020,12,EyesOpen
-18391.440020971302,-9524.324181595348,6627.560451932008,-2152.0036044125086,29210.712517584863,8605.823946693414,15941.57706994737,10826.983848450644,0.0,0.0,0.0,2019-03-17T21:25:35.776558,12,EyesOpen
-18253.105074537405,-9384.916351427597,6756.8876453504145,-2050.325518885317,29351.61791463112,8447.350078505287,16077.18510355772,10925.130358353897,0.0,0.0,0.0,2019-03-17T21:25:35.777213,12,EyesOpen
-18322.417834093314,-9463.438029699091,6795.243238835721,-1869.9022376420783,29311.13890542256,8950.420790960883,16038.918917050234,11045.673316201368,0.0,0.0,0.0,2019-03-17T21:25:35.783704,12,EyesOpen
-18464.954908484808,-9594.620417907288,6674.342653076966,-1944.8476368007227,29167.77481648622,9177.20159020443,15900.0028252605,10961.83192274951,0.0,0.0,0.0,2019-03-17T21:25:35.784130,12,EyesOpen
-18398.77139315264,-9552.42032437567,6610.1931464902345,-2140.2242350845618,29181.275270137226,8695.119165792366,15913.078595766854,10817.640819268325,0.0,0.0,0.0,2019-03-17T21:25:35.793176,12,EyesOpen
-18252.166301270285,-9394.348787587738,6733.597127627984,-2079.293379699395,29332.440117888465,8408.815671064338,16055.392152713795,10882.527933422081,0.0,0.0,0.0,2019-03-17T21:25:35.793637,12,EyesOpen
-18286.118601097896,-9414.085377941774,6820.25484088121,-1862.526161971827,29344.778280827795,8859.315080561051,16068.13264705332,11038.90073763141,0.0,0.0,0.0,2019-03-17T21:25:35.799478,12,EyesOpen
-18448.034637932138,-9588.920723071185,6706.998551726169,-1896.23259261043,29190.10420919707,9198.100471270141,15922.466328438084,10989.682196340824,0.0,0.0,0.0,2019-03-17T21:25:35.800127,12,EyesOpen
-18431.986085413228,-9570.70405134011,6611.4895476686415,-2104.8190718673554,29167.97598218632,8807.056702024543,15902.886200295236,10840.23843291264,0.0,0.0,0.0,2019-03-17T21:25:35.807543,12,EyesOpen
-18277.937862627252,-9401.970732446996,6703.735197035694,-2108.2388887690176,29313.70935603492,8410.156775731657,16040.304725206463,10865.808828569512,0.004,1.024,0.17,2019-03-17T21:25:35.808179,12,EyesOpen
-18268.550129956024,-9386.302159583827,6808.810747720093,-1901.4405490685165,29355.57417339971,8754.373640343385,16080.202589059185,11021.198156022807,0.0,0.0,0.0,2019-03-17T21:25:35.814211,12,EyesOpen
-18420.251419574193,-9555.527216854956,6724.947002523781,-1876.2724848118407,29213.14885773049,9190.210305477418,15947.544985716939,11014.671446641856,0.0,0.0,0.0,2019-03-17T21:25:35.814854,12,EyesOpen
-18440.83737621753,-9586.126755014271,6611.288381968544,-2079.0251587659313,29152.128595367503,8903.727996793747,15889.363394899774,10856.53285462056,0.0,0.0,0.0,2019-03-17T21:25:35.822402,12,EyesOpen
-18301.76482221661,-9430.96094500553,6672.219237353711,-2144.8063426978997,29278.103027117617,8414.023627522425,16006.285370145486,10830.180147907753,0.0,0.0,0.0,2019-03-17T21:25:35.823057,12,EyesOpen
-18249.662905891288,-9373.226389077472,6806.709683741294,-1938.387982653139,29367.018266560826,8650.080400714922,16092.786621187524,10997.929990044831,0.0,0.0,0.0,2019-03-17T21:25:35.829269,12,EyesOpen
-18391.82000062704,-9533.801321244398,6753.601938915484,-1860.4027462485728,29241.021483066263,9154.04518294873,15978.390393065261,11034.072760829064,0.0,0.0,0.0,2019-03-17T21:25:35.830011,12,EyesOpen
-18457.265908392183,-9600.811851121409,6625.124111786379,-2044.2011409045626,29145.08779586408,8995.59366650506,15890.011595488979,10883.578465411481,0.0,0.0,0.0,2019-03-17T21:25:35.837578,12,EyesOpen
-18319.57916254749,-9461.716945376033,6656.774181935094,-2151.7800869679554,29257.07003558517,8464.560921735874,15995.869457229312,10824.256935627096,0.0,0.0,0.0,2019-03-17T21:25:35.843559,12,EyesOpen
-18244.8572808334,-9375.439211778548,6795.86908768047,-1977.905866850122,29371.220394518423,8563.042707805957,16100.766193958068,10967.777486774623,0.0,0.0,0.0,2019-03-17T21:25:35.844359,12,EyesOpen
-18366.29430845908,-9503.06767261835,6783.575628230051,-1848.3998594760728,29280.18173935196,9105.631304458537,16016.07543421691,11044.399266767416,0.0,1.024,0.17,2019-03-17T21:25:35.851745,12,EyesOpen
-18461.579795072055,-9608.702016914132,6648.79460916455,-2005.9796578859875,29160.91283093844,9082.9442838364,15902.774441572958,10907.830108145488,0.0,0.0,0.0,2019-03-17T21:25:35.852454,12,EyesOpen
-18344.210784937237,-9476.267931016437,6649.755734176128,-2151.176589867662,29248.844593625618,8542.79202732945,15984.35830883483,10819.42895882475,0.0,0.0,0.0,2019-03-17T21:25:35.859772,12,EyesOpen
-18235.022513273063,-9361.782295916355,6792.113994611978,-2011.96992540001,29378.887042866594,8497.149765151711,16107.270551594562,10940.195434116773,0.0,0.0,0.0,2019-03-17T21:25:35.860681,12,EyesOpen
-18341.550927347056,-9475.709137405054,6813.638724522439,-1844.55535942976,29313.821114757196,9035.26801291323,16046.853786331867,11046.790903424133,0.0,0.0,0.0,2019-03-17T21:25:35.867100,12,EyesOpen
-18470.207568431804,-9613.351179760835,6677.158972878334,-1960.1809334970635,29173.094531666582,9155.341584127138,15913.01154053349,10940.038971905586,0.0,0.0,0.0,2019-03-17T21:25:35.867875,12,EyesOpen
-18398.436116985813,-9528.258088619481,6630.913213600304,-2150.886017189743,29213.64059610851,8625.627592280816,15950.115436329299,10813.796319222012,0.0,0.0,0.0,2019-03-17T21:25:35.874518,12,EyesOpen
-18250.445216947224,-9382.591770004246,6759.592206429506,-2059.802658534367,29360.983295557893,8440.599851679784,16085.008214117077,10901.929247609289,0.0,0.0,0.0,2019-03-17T21:25:35.875370,12,EyesOpen
-18315.846421223454,-9444.081419000795,6814.421035578374,-1863.2190660499414,29338.072757491205,8941.278927478663,16062.298841750486,11034.877423629454,0.0,0.0,0.0,2019-03-17T21:25:35.882562,12,EyesOpen
-18456.79652175862,-9585.657368380711,6699.577772567007,-1924.4851976019381,29195.938014499905,9197.809898592222,15925.595572661827,10967.665728052347,0.0,0.0,0.0,2019-03-17T21:25:35.883202,12,EyesOpen
-18401.587712954013,-9518.93741118162,6633.17073979029,-2126.1649878221738,29201.81652329165,8738.325087824474,15932.43520646515,10829.37548510736,0.0,1.02,0.17,2019-03-17T21:25:35.890428,12,EyesOpen
-18245.974868056164,-9368.37606053067,6748.684555135317,-2079.1369174882075,29349.09216750767,8430.318049230344,16072.066554077453,10884.941921823254,0.0,0.0,0.0,2019-03-17T21:25:35.891338,12,EyesOpen
-18283.436391763258,-9419.159223933128,6825.619259550484,-1876.2501330673854,29351.841432075675,8845.680516443315,16073.541769211504,11027.65781017039,0.0,0.0,0.0,2019-03-17T21:25:35.896769,12,EyesOpen
-18444.123082652462,-9584.89740906923,6720.834281544004,-1890.0858628852204,29201.21302619136,9211.399759221049,15932.837537865345,10990.106879485475,0.0,0.0,0.0,2019-03-17T21:25:35.903924,12,EyesOpen
-18429.370931311958,-9585.076223024873,6625.235870508656,-2099.968743320554,29167.77481648622,8832.157711047854,15902.729738084048,10832.95176422021,0.0,0.0,0.0,2019-03-17T21:25:35.904848,12,EyesOpen
-18266.314955510494,-9402.171898147095,6722.130682722412,-2106.8530806127883,29317.33033863668,8422.182014248612,16043.612783385848,10854.565901108492,0.0,0.0,0.0,2019-03-17T21:25:35.911985,12,EyesOpen
-18259.832949618452,-9385.586903761257,6831.87774799797,-1901.8205287242567,29368.493481694877,8747.981041429168,16092.227827576142,11011.117519273463,0.0,0.0,0.0,2019-03-17T21:25:35.912780,12,EyesOpen
-18416.541029994612,-9553.828484276353,6752.886683092915,-1868.717595185947,29226.69401487041,9196.58055264718,15962.073619612887,11009.664655883867,0.0,0.0,0.0,2019-03-17T21:25:35.919342,12,EyesOpen
-18453.197890901316,-9589.501868427024,6632.187263034256,-2072.252580195973,29159.2811535932,8930.661848862392,15899.019348504467,10850.833159784455,0.0,0.0,0.0,2019-03-17T21:25:35.920282,12,EyesOpen
-18299.842572193455,-9422.57904083479,6694.168650408823,-2135.9103484046877,29293.190454624946,8438.588194678807,16024.479690132106,10828.324953117963,0.0,0.0,0.0,2019-03-17T21:25:35.926850,12,EyesOpen
-18247.114807023383,-9375.61802573419,6818.019666435679,-1945.8534653012116,29374.57315618672,8638.256327898065,16100.207400346686,10978.059289224064,0.004,1.022,0.18,2019-03-17T21:25:35.927505,12,EyesOpen
-18392.043518071594,-9537.534062568435,6770.8574856349815,-1858.7934206477905,29256.60064895161,9152.502912581314,15989.342747848363,11018.940629832821,0.0,0.0,0.0,2019-03-17T21:25:35.934742,12,EyesOpen
-18465.491350351735,-9601.862383110809,6648.593443464451,-2031.3935913316718,29167.260726363747,9032.630507067503,15904.450822407107,10880.382165954372,0.0,0.0,0.0,2019-03-17T21:25:35.935460,12,EyesOpen
-18332.565526076025,-9457.626576140712,6671.861609442426,-2149.991947411531,29269.89993690252,8493.551134294406,16000.07158518691,10813.505746544093,0.0,0.0,0.0,2019-03-17T21:25:35.942777,12,EyesOpen
-18240.27517322006,-9361.268205793882,6806.709683741294,-1980.7892418848567,29381.27867952331,8558.50530368153,16104.387176559829,10952.533597056103,0.0,0.0,0.0,2019-03-17T21:25:35.943458,12,EyesOpen
-18350.581032107002,-9483.666358431145,6805.68150349635,-1835.9052343255562,29297.86196921611,9106.123042836552,16026.35723666635,11041.270022543673,0.0,0.0,0.0,2019-03-17T21:25:35.949462,12,EyesOpen
-18457.869405492474,-9601.057720310417,6669.2241035967,-1984.969018097999,29167.238374619294,9114.236726073828,15902.506220639494,10908.992398857165,0.0,0.0,0.0,2019-03-17T21:25:35.950262,12,EyesOpen
-18343.316715159024,-9477.787849639399,6661.021013381603,-2137.5643774943806,29242.273180755757,8576.945492857158,15977.004584909033,10811.784662221035,0.0,0.0,0.0,2019-03-17T21:25:35.956478,12,EyesOpen
-18210.659111816778,-9336.167196770573,6804.675674995861,-2001.0399223613647,29384.922013869527,8508.124471679268,16111.562086529982,10933.556966013548,0.0,0.0,0.0,2019-03-17T21:25:35.964700,12,EyesOpen
-18306.05635715203,-9442.941480033574,6824.3899136054415,-1837.4475046929724,29321.688928805463,9033.144597189976,16054.431027702216,11039.973621365265,0.0,0.0,0.0,2019-03-17T21:25:35.965531,12,EyesOpen
-18451.297992622614,-9586.216161992093,6690.793536996071,-1947.842770557734,29174.25682237826,9172.597130846636,15919.001808047511,10933.69107648028,0.0,1.018,0.178,2019-03-17T21:25:35.972999,12,EyesOpen
-18379.92887257682,-9516.635181502723,6642.558472461519,-2140.5595112513915,29209.43846815091,8654.014307739057,15954.295212542442,10804.60975225088,0.0,0.0,0.0,2019-03-17T21:25:35.973894,12,EyesOpen
-18242.13036800985,-9363.168104072583,6766.185971043822,-2061.7472603019787,29355.23889723288,8441.784494135916,16089.702080452691,10886.148916023842,0.0,0.0,0.0,2019-03-17T21:25:35.979104,12,EyesOpen
-18282.318804540493,-9420.05329371134,6838.270346912187,-1855.46301072395,29349.6286093746,8935.534529153649,16081.051955348488,11031.770531150167,0.0,0.0,0.0,2019-03-17T21:25:35.979871,12,EyesOpen
-18435.6517715039,-9589.881848082763,6719.269659432132,-1913.5998980522036,29197.279119167226,9203.062558539219,15937.531404200961,10961.966033216242,0.0,0.0,0.0,2019-03-17T21:25:35.987068,12,EyesOpen
-18402.07945133203,-9540.08216143634,6643.720763173194,-2115.8608336282773,29198.441409878902,8757.279367122575,15940.727703658069,10819.317200102472,0.0,0.0,0.0,2019-03-17T21:25:35.987712,12,EyesOpen
-18255.876690849866,-9378.255531579916,6750.405639458375,-2085.3059989578724,29346.90169655105,8421.869089826238,16079.576740214437,10865.451200658226,0.0,0.0,0.0,2019-03-17T21:25:35.995034,12,EyesOpen
-18273.087534080452,-9398.930895201076,6837.979774234268,-1878.261790068363,29366.079493293702,8824.446359210773,16097.815763689969,11015.118481530963,0.0,0.0,0.0,2019-03-17T21:25:35.995937,12,EyesOpen
-18424.25238183169,-9558.61175758979,6740.593223642496,-1882.5086215148715,29220.59198863411,9207.465852196914,15962.095971357343,10985.70358582778,0.0,0.0,0.0,2019-03-17T21:25:36.002160,12,EyesOpen
-18424.140623109415,-9554.856664521298,6635.428265980276,-2090.22338273804,29180.29179338119,8854.285938058609,15926.668456395682,10829.509595574093,0.0,0.0,0.0,2019-03-17T21:25:36.002804,12,EyesOpen
-18268.393667744836,-9392.113613142206,6715.201641941267,-2117.738380162523,29320.86191426062,8417.689313613095,16059.594280671392,10832.012990953088,0.002,1.02,0.18,2019-03-17T21:25:36.009750,12,EyesOpen
-18246.868937834377,-9374.813362933799,6827.273288640176,-1915.2092236529857,29378.39530448858,8716.48743349164,16114.445461564716,10984.474239882737,0.0,0.0,0.0,2019-03-17T21:25:36.010392,12,EyesOpen
-18393.764602394655,-9529.800358986899,6762.363822741964,-1862.3696997606398,29248.106986058592,9187.997482776342,15992.315529860918,10998.868763311955,0.0,0.0,0.0,2019-03-17T21:25:36.016671,12,EyesOpen
-18433.32719008055,-9577.588388632345,6640.591518949452,-2063.0883649692973,29173.854490978065,8947.604471159515,15919.180622003154,10841.579537579959,0.0,0.0,0.0,2019-03-17T21:25:36.024422,12,EyesOpen
-18292.488848267658,-9419.852128011242,6692.738138763683,-2145.968633409576,29295.693850003943,8440.510444701964,16032.861594302845,10805.123842373354,0.0,0.0,0.0,2019-03-17T21:25:36.025204,12,EyesOpen
-18212.849582773397,-9342.448036962514,6833.509425343207,-1949.8991310476222,29394.19798781848,8621.447816067674,16124.794319247523,10961.429591349315,0.0,0.0,0.0,2019-03-17T21:25:36.032575,12,EyesOpen
-18352.4809303857,-9511.941315167107,6793.231581834743,-1857.9217026140336,29273.31975380418,9135.582642028647,16009.526373091505,11003.003836036187,0.0,0.0,0.0,2019-03-17T21:25:36.033331,12,EyesOpen
-18435.02592265915,-9592.385243461758,6661.959786648726,-2035.5957192892695,29168.087740908595,9030.864719255535,15907.937694542134,10855.974061009176,0.0,0.0,0.0,2019-03-17T21:25:36.039210,12,EyesOpen
-18304.469383295702,-9448.81998882532,6682.791612481072,-2156.831581214855,29271.46455901439,8498.535573307941,16004.363120122329,10789.499972999094,0.0,0.0,0.0,2019-03-17T21:25:36.039863,12,EyesOpen
-18197.449230843693,-9341.79983637331,6826.468625839785,-1986.8018611433342,29397.72956344242,8543.864911063303,16122.894420968822,10932.193509601773,0.0,0.0,0.0,2019-03-17T21:25:36.047282,12,EyesOpen
-18317.56750554651,-9469.741221635488,6817.863204224492,-1846.075278052721,29308.255530387825,9082.877228603033,16041.154091495764,11017.979504821242,0.004,1.022,0.18,2019-03-17T21:25:36.048088,12,EyesOpen
-18427.918067922365,-9595.80506036342,6681.182286880289,-1986.555991954326,29177.944860213385,9117.634191231036,15919.828822592357,10892.474459704694,0.0,0.0,0.0,2019-03-17T21:25:36.054490,12,EyesOpen
-18320.205011392238,-9482.146439808183,6666.005452395136,-2146.862703187788,29248.68813141443,8583.226333049099,15988.247512370053,10791.690443955713,0.0,0.0,0.0,2019-03-17T21:25:36.055460,12,EyesOpen
-18193.135344163817,-9344.28088000785,6803.4910325397295,-2026.1856348735853,29386.464284236943,8476.966139908569,16118.446423822215,10900.230515030684,0.0,0.0,0.0,2019-03-17T21:25:36.061929,12,EyesOpen
-18276.552054471023,-9433.464340384524,6841.377239391475,-1847.394030975584,29335.94934176795,8999.237000851273,16072.468885477649,11019.253554255194,0.0,0.0,0.0,2019-03-17T21:25:36.062623,12,EyesOpen
-18405.901599633886,-9570.659347851199,6717.727389064717,-1940.6902123320358,29195.24511042179,9176.016947748298,15938.380770490263,10927.20907058824,0.0,0.0,0.0,2019-03-17T21:25:36.069791,12,EyesOpen
-18334.890107499374,-9494.663416703155,6664.977272150192,-2132.1329035917406,29226.93988405942,8674.533209149029,15968.10859061582,10794.439708523716,0.0,0.0,0.0,2019-03-17T21:25:36.070427,12,EyesOpen
-18195.862256987366,-9357.691926681033,6782.703910196294,-2065.4352981371044,29372.494443952375,8430.519214930442,16102.107298625388,10864.355965179917,0.0,0.0,0.0,2019-03-17T21:25:36.076818,12,EyesOpen
-18238.26351621908,-9406.798709249344,6854.453009897829,-1856.7147084134472,29367.71117063894,8911.305238164095,16100.699138724702,11012.257458240683,0.0,0.0,0.0,2019-03-17T21:25:36.077208,12,EyesOpen
-18393.541084950102,-9568.535932127945,6733.731238094716,-1907.7884444938238,29210.93603502942,9204.805994606733,15957.044477110443,10945.73866674169,0.0,0.0,0.0,2019-03-17T21:25:36.085241,12,EyesOpen
-18370.608195138957,-9535.410646845181,6646.805303908027,-2120.5323482194362,29198.061430223162,8767.136486427366,15946.941488616645,10792.383348033829,0.006,1.024,0.176,2019-03-17T21:25:36.091320,12,EyesOpen
-18216.09058571942,-9371.23708382095,6749.1986452577885,-2099.32054273135,29349.315684952224,8410.626162365217,16088.070403107455,10832.057694441997,0.0,0.0,0.0,2019-03-17T21:25:36.092204,12,EyesOpen
-18230.105129492895,-9387.419746806592,6838.292698656643,-1894.7573774763798,29375.690743409486,8794.942056529768,16113.797260975512,10980.830905536523,0.0,0.0,0.0,2019-03-17T21:25:36.099164,12,EyesOpen
-18378.811285354055,-9548.50876909599,6749.980956313724,-1887.3142465727624,29234.092442285117,9200.849735838145,15980.245587855052,10960.624928548925,0.0,0.0,0.0,2019-03-17T21:25:36.099579,12,EyesOpen
-18379.325375476525,-9544.977193472052,6653.913158644815,-2085.2612954689616,29194.619261577045,8877.867028458957,15944.326334515374,10813.930429688744,0.0,0.0,0.0,2019-03-17T21:25:36.108732,12,EyesOpen
-18224.31602767897,-9385.698662483534,6737.307517207565,-2116.643144684213,29333.535353366777,8430.362752719255,16072.312423266463,10814.802147722501,0.0,0.0,0.0,2019-03-17T21:25:36.109016,12,EyesOpen
-18196.666919787756,-9358.451885992514,6850.608509851517,-1920.3501248777063,29391.225205805924,8701.95879959569,16124.95078145871,10965.02822220662,0.0,0.0,0.0,2019-03-17T21:25:36.115016,12,EyesOpen
-18347.45178788326,-9521.373751327248,6787.1519073429,-1858.592254947693,29261.4062740095,9187.259875209318,16004.027843955499,10990.375100418938,0.0,0.0,0.0,2019-03-17T21:25:36.115327,12,EyesOpen
-18400.134849564416,-9570.234664706548,6657.891769157859,-2055.0417369653865,29176.693162523887,8974.761840672712,15922.466328438084,10835.745732277124,0.0,0.0,0.0,2019-03-17T21:25:36.122295,12,EyesOpen
-18254.04384780453,-9410.933781973576,6707.2220691707225,-2138.167874594674,29303.673422774486,8466.751392692495,16041.869347318334,10800.005292893087,0.0,0.0,0.0,2019-03-17T21:25:36.123042,12,EyesOpen
-18177.936157934208,-9345.063191063786,6848.574501106084,-1941.807799554801,29410.000671148384,8624.04061842449,16144.285040412551,10956.825131991522,0.01,1.034,0.17,2019-03-17T21:25:36.130207,12,EyesOpen
-18312.91834269981,-9484.381614253714,6818.600811791517,-1831.5466441567714,29300.588882039654,9155.43099110496,16043.813949085947,11016.236068753728,0.0,0.0,0.0,2019-03-17T21:25:36.131232,12,EyesOpen
-18402.191210054305,-9576.001414776018,6685.362063093432,-2003.2527450624402,29189.90304349697,9079.70328089038,15940.77240714698,10873.67664261778,0.0,0.0,0.0,2019-03-17T21:25:36.137566,12,EyesOpen
-18270.38297300136,-9422.57904083479,6703.80225226906,-2128.8024936679,29289.636527256553,8541.74149534005,16039.768283339536,10800.005292893087,0.0,0.0,0.0,2019-03-17T21:25:36.138438,12,EyesOpen
-18147.627192452812,-9302.907801021076,6847.322803416587,-1965.8135730998008,29418.04729915229,8559.175856015188,16163.753409833123,10935.993306159176,0.0,0.0,0.0,2019-03-17T21:25:36.143789,12,EyesOpen
-18256.815464116986,-9435.699514830056,6848.842722039548,-1820.0354957622883,29337.80453655774,9098.210525299373,16091.400813031294,11027.389589236927,0.0,0.0,0.0,2019-03-17T21:25:36.151614,12,EyesOpen
-18387.4390587138,-9568.155952472205,6715.045179730079,-1957.9234073070775,29204.20815994837,9159.275491151273,15967.192169093154,10905.058491833031,0.0,0.0,0.0,2019-03-17T21:25:36.152305,12,EyesOpen
-18295.8192581915,-9462.566311665334,6693.654560286351,-2125.6285459552464,29268.424721768468,8625.51583355854,16027.273658189019,10795.601999235392,0.0,0.0,0.0,2019-03-17T21:25:36.159801,12,EyesOpen
-18175.477466044125,-9330.892185079121,6820.567765303585,-2018.6083935032361,29407.139647858105,8488.67845400315,16155.282098684562,10893.033253316076,0.0,0.0,0.0,2019-03-17T21:25:36.160448,12,EyesOpen
-18260.52585369657,-9424.702456558045,6847.948652261335,-1845.7400018858914,29360.75977811334,8997.180640361386,16107.650531250303,11007.228315738239,0.0,0.0,0.0,2019-03-17T21:25:36.166992,12,EyesOpen
-18392.78112563862,-9565.026708248462,6724.321153679032,-1931.391886638628,29216.702785098885,9195.597075891146,15972.78010520698,10921.151747840851,0.008,1.03,0.17,2019-03-17T21:25:36.167631,12,EyesOpen
-18323.870697482907,-9491.936503879608,6670.967539664214,-2124.890938388221,29241.13324178854,8702.785814140536,16002.127945676799,10789.432917765727,0.0,0.0,0.0,2019-03-17T21:25:36.174302,12,EyesOpen
-18169.196625852182,-9333.395580458115,6799.601829004506,-2056.74046954399,29396.701383197473,8447.059505827368,16149.492996870638,10865.384145424861,0.0,0.0,0.0,2019-03-17T21:25:36.174938,12,EyesOpen
-18218.169297953762,-9389.029072407375,6865.539475147662,-1862.012071849355,29386.933670870505,8903.772700282658,16140.060560710499,11004.70256861479,0.0,0.0,0.0,2019-03-17T21:25:36.182349,12,EyesOpen
-18369.691773616287,-9547.011202217485,6755.05480230508,-1897.5736972777484,29237.892238842516,9226.666000684023,16000.004529953543,10954.835826735,0.0,0.0,0.0,2019-03-17T21:25:36.183152,12,EyesOpen
-18341.886203513885,-9513.93062042363,6670.0734698860015,-2096.7947956079,29226.135221259025,8815.595068406472,15988.0239949255,10806.75551971859,0.0,0.0,0.0,2019-03-17T21:25:36.190373,12,EyesOpen
-18185.871027215842,-9345.778446886356,6768.734069911728,-2087.742339103501,29372.3826852301,8436.442427211097,16126.180127403752,10836.48333984415,0.0,0.0,0.0,2019-03-17T21:25:36.191020,12,EyesOpen
-18190.78841099601,-9351.858121378198,6864.019556524701,-1886.1743076055418,29400.232958821412,8799.747681587658,16156.9137760298,10991.135059730419,0.0,0.0,0.0,2019-03-17T21:25:36.197112,12,EyesOpen
-18348.323505917015,-9520.747902482499,6773.450287991797,-1872.8750196546341,29252.577334949656,9217.546488946258,16020.881059274801,10974.415954877848,0.0,0.0,0.0,2019-03-17T21:25:36.197990,12,EyesOpen
-18356.05720949855,-9526.514652551969,6671.07929838649,-2072.5431528738923,29207.247997194292,8914.18861319883,15979.373869821296,10823.049941426509,0.0,0.0,0.0,2019-03-17T21:25:36.205663,12,EyesOpen
-18205.40645186978,-9377.741441457443,6738.3356974525095,-2123.214557554073,29342.788975571275,8448.914700617159,16104.677749237748,10811.136461631831,0.01,1.024,0.17400000000000002,2019-03-17T21:25:36.211921,12,EyesOpen
