eeg1,eeg2,eeg3,eeg4,eeg5,eeg6,eeg7,eeg8,accx,accy,accz,iso_utc,session_id,command_name
0.0,0.0,0.0,0.0,0.0,0.0,0.0,0.0,0.0,0.0,0.0,2019-03-17T21:26:31.545163,14,EyesOpen
-21122.018530609435,-10205.180669448457,7911.3105429781135,-1528.278175387165,27313.630558685134,10686.458431060128,15047.395533012812,11235.104350460095,-0.002,1.022,0.158,2019-03-17T21:26:31.561080,14,EyesOpen
-21241.10862506731,-10337.838272790703,7904.001522541228,-1384.3999963283536,27208.48795276737,11224.107292188084,14955.418104579223,11329.585174272677,0.0,0.0,0.0,2019-03-17T21:26:31.566849,14,EyesOpen
-21344.776015851025,-10448.188835166555,7768.169971486327,-1525.9982974527238,27081.619451239047,11247.04018199923,14833.466986831068,11204.840088467608,0.0,0.0,0.0,2019-03-17T21:26:31.567328,14,EyesOpen
-21247.992962359545,-10343.202691459977,7742.398410129358,-1701.6830088714373,27155.491966663834,10694.30389336394,14895.56013292791,11080.005595684719,0.0,0.0,0.0,2019-03-17T21:26:31.574034,14,EyesOpen
-21122.309103287353,-10211.103881729112,7877.313539661592,-1577.0049782997346,27292.374049708134,10597.677302083648,15023.680332145732,11187.919817914943,0.0,0.0,0.0,2019-03-17T21:26:31.581658,14,EyesOpen
-21200.80842981439,-10301.494336306374,7917.4125692144125,-1385.6293422733954,27230.25855186684,11127.793625330165,14975.91465424474,11324.153700370038,0.0,0.0,0.0,2019-03-17T21:26:31.582371,14,EyesOpen
-21343.099635016875,-10446.713620032504,7787.012492062151,-1483.3288172875425,27078.244337826294,11284.434650472958,14836.395065354714,11231.952754491896,0.0,0.0,0.0,2019-03-17T21:26:31.588966,14,EyesOpen
-21275.195035361652,-10373.086973796722,7732.854215246942,-1680.2253341943426,27123.79719302621,10772.914978613255,14868.067487247883,11091.449688845836,0.004,1.024,0.156,2019-03-17T21:26:31.589559,14,EyesOpen
-21135.60839123826,-10218.479957399364,7853.93361496134,-1604.3188100241198,27276.079628000218,10543.586080501806,15006.804765081975,11167.356213016059,0.0,0.0,0.0,2019-03-17T21:26:31.596427,14,EyesOpen
-21189.029060486446,-10280.617806985118,7916.093816291549,-1402.4378541037863,27245.05540669625,11017.085435043029,14987.694023572687,11318.275191578292,0.0,0.0,0.0,2019-03-17T21:26:31.597202,14,EyesOpen
-21328.258076698552,-10431.290916358343,7812.4040737633795,-1441.7545726006715,27098.27150085825,11309.826232174186,14854.388219641236,11272.163542766993,0.0,0.0,0.0,2019-03-17T21:26:31.604349,14,EyesOpen
-21300.74307927407,-10397.137450830633,7721.566584297012,-1662.1204211855438,27098.07033515815,10862.634880856858,14849.113207949784,11110.515726866213,0.0,0.0,0.0,2019-03-17T21:26:31.604850,14,EyesOpen
-21157.088417659812,-10239.69176288745,7821.92591690134,-1646.116572155544,27254.666656812034,10512.427748731106,14991.694985830187,11144.06569529363,0.0,0.0,0.0,2019-03-17T21:26:31.612977,14,EyesOpen
-21169.851263743793,-10262.334080020677,7912.092854034049,-1432.1209707404341,27266.915412773542,10902.599799942947,15008.481145916123,11303.5677437267,0.0,0.0,0.0,2019-03-17T21:26:31.613707,14,EyesOpen
-21313.528277102505,-10420.96441041999,7823.669352968855,-1418.2628891781437,27113.94007372142,11297.979807612874,14870.70499309361,11294.470583733391,0.0,0.0,0.0,2019-03-17T21:26:31.619205,14,EyesOpen
-21320.747890561568,-10420.271506341876,7716.895069705853,-1630.9173859259352,27078.758427948767,10953.31590811204,14832.12588216375,11130.699352109355,0.0,0.0,0.0,2019-03-17T21:26:31.619832,14,EyesOpen
-21176.981470225033,-10265.642138200063,7785.783146117109,-1672.8939620130018,27225.51998204231,10506.146908539165,14963.330622116402,11116.327180424594,0.0,0.0,0.0,2019-03-17T21:26:31.627152,14,EyesOpen
-21149.19825186709,-10238.12714077558,7898.9276765498735,-1468.8225351360484,27277.55484313427,10790.438746266216,15016.527773920034,11275.337490479647,0.008,1.022,0.16,2019-03-17T21:26:31.627836,14,EyesOpen
-21294.618701293315,-10399.14910783161,7832.945326917807,-1411.0879792079902,27129.60864658459,11262.84286532913,14886.082993278862,11298.80682215772,0.0,0.0,0.0,2019-03-17T21:26:31.634161,14,EyesOpen
-21330.1356232328,-10440.566890307295,7715.285744105071,-1607.8727373925135,27061.72639867382,11042.052333599608,14819.072463401852,11143.797474360166,0.0,0.0,0.0,2019-03-17T21:26:31.641120,14,EyesOpen
-21197.85799954629,-10295.906400192547,7751.6520323338555,-1707.33800021863,27186.963222856906,10519.580306956805,14927.254906565537,11083.403060841925,0.0,0.0,0.0,2019-03-17T21:26:31.641985,14,EyesOpen
-21133.932010404114,-10229.856995327114,7881.470964130279,-1519.8068642386038,27277.800712323275,10679.261169345518,15013.800861096486,11234.456149870892,0.0,0.0,0.0,2019-03-17T21:26:31.648620,14,EyesOpen
-21255.88312815227,-10359.38535444562,7862.382574365446,-1395.6205720449177,27168.79125461474,11214.630152539034,14918.582429716878,11315.257706076825,0.0,0.0,0.0,2019-03-17T21:26:31.649175,14,EyesOpen
-21340.149204748777,-10451.698059046037,7727.9368314667745,-1567.5278386506843,27063.96157311935,11124.083235750584,14815.451480800091,11170.753678173265,0.0,0.0,0.0,2019-03-17T21:26:31.656714,14,EyesOpen
-21215.20295324361,-10318.168737670034,7737.793950771565,-1704.856956584091,27175.09444655114,10579.639444308215,14910.267580779504,11082.754860252722,0.0,0.0,0.0,2019-03-17T21:26:31.657409,14,EyesOpen
-21118.55401021886,-10205.314779915188,7871.613844825488,-1551.2557686872208,27291.770552607843,10598.169040461666,15017.466547187156,11213.333751360626,0.0,0.0,0.0,2019-03-17T21:26:31.664726,14,EyesOpen
-21225.82003185988,-10318.99575221488,7876.5088768612,-1396.7158075232278,27199.90488289653,11140.400009202958,14939.593069504866,11320.510366023824,0.0,0.0,0.0,2019-03-17T21:26:31.665237,14,EyesOpen
-21338.45047217017,-10455.184931181066,7741.504340351145,-1534.5813673235616,27069.54950923318,11190.6914342274,14817.55254477889,11202.068472155152,0.006,1.028,0.158,2019-03-17T21:26:31.671140,14,EyesOpen
-21246.942430370145,-10358.67009862305,7713.989342926663,-1712.657715398993,27143.220858957873,10644.72772416207,14878.595158886334,11078.753897995222,0.0,0.0,0.0,2019-03-17T21:26:31.671567,14,EyesOpen
-21125.57245797783,-10233.008591295313,7839.270870598659,-1606.3528187695526,27276.34784893368,10517.345132511275,15003.139078991304,11173.815867163643,0.0,0.0,0.0,2019-03-17T21:26:31.679323,14,EyesOpen
-21200.540208880928,-10312.558449811751,7884.108469976005,-1410.9762204857136,27222.703662240943,11046.410923768393,14962.77182850502,11312.463738019913,0.0,0.0,0.0,2019-03-17T21:26:31.680159,14,EyesOpen
-21347.94996356368,-10465.466733630506,7755.340070168981,-1499.2432593397211,27069.705971444368,11231.885699258532,14819.184222124128,11223.347332876603,0.0,0.0,0.0,2019-03-17T21:26:31.687384,14,EyesOpen
-21291.06477392492,-10399.81966016527,7690.184735081761,-1704.7451978618144,27099.50084680329,10723.852899533857,14840.194861912116,11069.366165323992,0.0,0.0,0.0,2019-03-17T21:26:31.688163,14,EyesOpen
-21138.13413836171,-10238.462416942408,7808.02313185014,-1641.7803337312143,27250.01749396533,10468.26070168742,14979.088601957394,11131.056980020641,0.0,0.0,0.0,2019-03-17T21:26:31.694529,14,EyesOpen
-21187.039755229922,-10275.834533671681,7886.790679310642,-1426.2648136931437,27238.30517987075,10936.194471859273,14975.065287955438,11288.14504005254,0.0,0.0,0.0,2019-03-17T21:26:31.695400,14,EyesOpen
-21338.36106519235,-10439.136378662155,7780.932817570308,-1460.1947617762999,27083.45229428438,11247.353106421604,14835.45629208759,11241.429894140947,0.0,0.0,0.0,2019-03-17T21:26:31.700937,14,EyesOpen
-21312.2318759241,-10417.63400049615,7689.3130170480035,-1675.7996887921918,27079.98777389381,10824.703970516202,14826.31442860537,11078.932711950865,0.0,0.0,0.0,2019-03-17T21:26:31.709043,14,EyesOpen
-21158.89890896069,-10251.337021748664,7786.364291472947,-1665.5849415761163,27237.746386259365,10458.917672505102,14970.259662897548,11104.368997141004,0.002,1.03,0.158,2019-03-17T21:26:31.709746,14,EyesOpen
-21163.838644485313,-10254.667431672506,7881.850943786019,-1455.0985640404897,27257.661790569044,10837.757389278102,14994.399546909279,11265.145095008027,0.0,0.0,0.0,2019-03-17T21:26:31.716855,14,EyesOpen
-21320.926704517213,-10420.696189486527,7793.650960165377,-1439.5864533885067,27103.904140460985,11254.66212685849,14856.042248730928,11257.858426315597,0.0,0.0,0.0,2019-03-17T21:26:31.717324,14,EyesOpen
-21329.64388485478,-10435.291878615843,7684.060357101007,-1649.3128716126528,27062.50870972976,10937.557928271048,14813.126899376739,11094.645988302946,0.0,0.0,0.0,2019-03-17T21:26:31.723596,14,EyesOpen
-21170.76768526646,-10270.537170235773,7757.374078914414,-1690.9988750218006,27214.23235109238,10478.49780064795,14949.025505665006,11081.346700352038,0.0,0.0,0.0,2019-03-17T21:26:31.724063,14,EyesOpen
-21144.549089020384,-10237.92597507548,7877.17942919486,-1484.4240527658526,27270.87167154213,10740.482597408605,15008.168221493748,11239.529995862245,0.0,0.0,0.0,2019-03-17T21:26:31.731486,14,EyesOpen
-21297.79264900597,-10396.82452640826,7819.176652333338,-1407.578755328507,27128.26754191727,11233.919708003963,14883.892522322241,11274.532827679257,0.0,0.0,0.0,2019-03-17T21:26:31.731964,14,EyesOpen
-21346.27358272953,-10442.980878708468,7697.158479351817,-1595.668684919916,27053.50095671427,11042.23114755525,14809.88589643072,11121.736302582778,0.0,0.0,0.0,2019-03-17T21:26:31.739567,14,EyesOpen
-21214.48769742104,-10302.611923529139,7726.461616332725,-1703.8958315725126,27174.5133011953,10514.238240031988,14917.28602853847,11054.971641894776,0.0,0.0,0.0,2019-03-17T21:26:31.740006,14,EyesOpen
-21145.51021403196,-10227.867690070592,7856.638176040433,-1522.9808119512572,27266.803654051266,10642.24668052753,15005.977750537128,11199.341559331604,0.0,0.0,0.0,2019-03-17T21:26:31.746625,14,EyesOpen
-21269.227119592088,-10365.308566726277,7837.929765931341,-1398.7945197575714,27150.239306716838,11179.224989321827,14905.037272576961,11277.595016669633,-0.004,1.026,0.158,2019-03-17T21:26:31.747226,14,EyesOpen
-21347.92761181922,-10450.02167821189,7709.273124846593,-1557.9836437682682,27044.604962421057,11120.574011871102,14804.700291717088,11144.11039878254,0.0,0.0,0.0,2019-03-17T21:26:31.754138,14,EyesOpen
-21226.62469466027,-10312.446691089475,7710.256601602627,-1702.2194507383647,27150.28401020575,10570.341118614808,14894.643711405244,11048.869615658477,0.0,0.0,0.0,2019-03-17T21:26:31.754590,14,EyesOpen
-21134.334341804308,-10216.892983543037,7839.337925832025,-1563.7727455821928,27267.183633707005,10548.972850915534,14999.58515162291,11160.963614101842,0.0,0.0,0.0,2019-03-17T21:26:31.761302,14,EyesOpen
-21240.63923843375,-10340.229909447422,7846.937518946829,-1407.869328006426,27175.407370973513,11084.990034698252,14919.364740772813,11264.295728718726,0.0,0.0,0.0,2019-03-17T21:26:31.769060,14,EyesOpen
-21354.32021073344,-10454.849655014235,7718.414988328814,-1529.0828381875563,27041.58747691959,11167.915006627441,14794.530247989924,11154.213387276339,0.0,0.0,0.0,2019-03-17T21:26:31.769724,14,EyesOpen
-21274.323317327897,-10358.826560834237,7681.37814776637,-1707.7626833632808,27109.492076574814,10634.490625201539,14852.801245784909,11028.41776948187,0.0,0.0,0.0,2019-03-17T21:26:31.777737,14,EyesOpen
-21144.683199487114,-10229.40996043801,7809.386588261913,-1605.726969924804,27255.516023101336,10489.31604496432,14987.850485783874,11123.680904350389,0.0,0.0,0.0,2019-03-17T21:26:31.778427,14,EyesOpen
-21216.946389311124,-10311.239696888888,7853.263062627681,-1417.9723165002247,27201.201284074938,10997.237085966717,14946.43270330819,11258.864254816086,0.0,0.0,0.0,2019-03-17T21:26:31.784068,14,EyesOpen
-21349.693399631193,-10451.429838112574,7735.670535048311,-1490.0566923685901,27052.338666002594,11218.02761769624,14811.02583539794,11189.082108626617,0.0,0.0,0.0,2019-03-17T21:26:31.784638,14,EyesOpen
-21299.26786414002,-10393.762337417882,7670.515199961091,-1696.7432733468145,27081.8429686836,10733.88883279429,14834.159890909183,11043.639307455935,-0.006,1.024,0.156,2019-03-17T21:26:31.792009,14,EyesOpen
-21157.982487438025,-10236.45075994143,7787.884210095908,-1646.2506826222757,27235.287694369283,10451.988631723956,14975.244101911081,11100.233924416772,0.0,0.0,0.0,2019-03-17T21:26:31.792846,14,EyesOpen
-21188.29145291942,-10270.559521980229,7868.328138390558,-1435.0714010085346,27225.832906464686,10903.739738910168,14976.719317045132,11259.445400171924,0.0,0.0,0.0,2019-03-17T21:26:31.799787,14,EyesOpen
-21339.299838459476,-10429.368666335185,7767.924102297319,-1457.6913663973055,27070.085951100107,11244.22386219786,14837.803225255399,11225.023713710752,0.0,0.0,0.0,2019-03-17T21:26:31.800363,14,EyesOpen
-21319.630303338803,-10408.022750380367,7681.75812742211,-1666.0096247207673,27065.54854697568,10846.116941704386,14828.46019607308,11072.00367116972,0.0,0.0,0.0,2019-03-17T21:26:31.806565,14,EyesOpen
-21168.15253116519,-10248.297184502744,7768.34878544197,-1671.5752090901387,27214.567627259214,10453.106218946723,14960.871930226318,11085.884104476465,0.0,0.0,0.0,2019-03-17T21:26:31.807292,14,EyesOpen
-21166.72201952005,-10240.496425687841,7871.859714014497,-1457.9372355863138,27240.76387176083,10807.04609239651,14991.739689319098,11247.576623866156,0.0,0.0,0.0,2019-03-17T21:26:31.814752,14,EyesOpen
-21315.808155036946,-10403.306532300297,7796.489631711202,-1424.6107846034508,27088.66025074247,11243.46390288638,14856.668097575677,11252.069324501674,0.0,0.0,0.0,2019-03-17T21:26:31.815433,14,EyesOpen
-21333.957771534657,-10421.59025926474,7690.877639159876,-1624.949470156368,27045.320218243625,10952.243024378184,14813.193954610106,11095.24948540324,0.0,0.0,0.0,2019-03-17T21:26:31.821545,14,EyesOpen
-21193.52176112196,-10265.485675988875,7747.0699247205175,-1688.0260930092447,27183.543405955246,10470.965262766513,14934.72038921361,11064.828761199566,0.0,0.0,0.0,2019-03-17T21:26:31.831013,14,EyesOpen
-21152.88628970221,-10231.399265694532,7867.501123845712,-1489.8778784129477,27248.899906742565,10703.535163823983,14996.098279487882,11217.513527573768,-0.002,1.026,0.162,2019-03-17T21:26:31.831776,14,EyesOpen
-21288.449619823652,-10381.491229711919,7827.647963481899,-1398.2357261461887,27118.65629180149,11210.517431559258,14884.205446744616,11267.156752009005,0.0,0.0,0.0,2019-03-17T21:26:31.837661,14,EyesOpen
-21346.787672852002,-10443.651431042128,7693.559848494512,-1588.985513327779,27029.20461049135,11039.683048687346,14798.821782925343,11111.566258855613,0.0,0.0,0.0,2019-03-17T21:26:31.838296,14,EyesOpen
-21202.57421762636,-10283.098850619657,7728.76384601162,-1693.4128634229737,27160.074074277174,10517.70276042256,14913.463880236612,11052.356487793504,0.0,0.0,0.0,2019-03-17T21:26:31.845814,14,EyesOpen
-21134.46845227104,-10211.752082318317,7852.860731227485,-1524.187806151844,27252.811462022244,10617.168023248676,15000.92625629023,11191.093765627595,0.0,0.0,0.0,2019-03-17T21:26:31.846466,14,EyesOpen
-21254.296154295942,-10344.1414647271,7840.008478165684,-1392.5583830545406,27144.293742691727,11162.751753658265,14905.529010954979,11277.505609691812,0.0,0.0,0.0,2019-03-17T21:26:31.852288,14,EyesOpen
-21333.60014362337,-10432.341448347743,7714.726950493688,-1547.4336203853632,27033.16086925994,11134.990887044774,14800.252294570482,11147.887843595487,0.0,0.0,0.0,2019-03-17T21:26:31.852930,14,EyesOpen
-21230.44684296213,-10323.130824939111,7708.133185879373,-1709.1037880305992,27125.42887037145,10582.880447254234,14879.08689726435,11041.985278366243,0.0,0.0,0.0,2019-03-17T21:26:31.859467,14,EyesOpen
-21131.76389119195,-10214.836623053148,7838.667373498366,-1573.473402675796,27252.6326480666,10547.363525314751,14996.5900178659,11160.360117001548,0.0,0.0,0.0,2019-03-17T21:26:31.860049,14,EyesOpen
-21228.658703405705,-10314.525403323818,7860.41562085338,-1398.8168715020265,27176.413199474002,11093.461345846814,14934.787444446976,11282.780621383265,0.0,0.0,0.0,2019-03-17T21:26:31.867002,14,EyesOpen
-21357.069475301443,-10447.004192710423,7725.835767487975,-1517.8846142154473,27034.367863460528,11197.754585475277,14805.303788817382,11173.190018318894,0.002,1.022,0.162,2019-03-17T21:26:31.867834,14,EyesOpen
-21271.12701787079,-10345.661383350061,7689.067147858996,-1702.6664856274708,27100.283157859227,10669.940491907655,14857.94214700963,11043.304031289104,0.0,0.0,0.0,2019-03-17T21:26:31.874933,14,EyesOpen
-21140.70458897407,-10205.426538637465,7812.381722018925,-1610.1749670714103,27242.730825272898,10498.100280535255,14990.35388116287,11130.900517809454,0.0,0.0,0.0,2019-03-17T21:26:31.875722,14,EyesOpen
-21207.24573221752,-10291.100775134657,7866.383536622947,-1413.4572641202528,27194.7192781829,11001.908600557876,14955.39575283477,11270.397754955025,0.0,0.0,0.0,2019-03-17T21:26:31.882370,14,EyesOpen
-21338.405768681263,-10436.342410605243,7757.016451003129,-1473.3375875160204,27047.577744433613,11249.051839000207,14821.397044825202,11205.153012889983,0.0,0.0,0.0,2019-03-17T21:26:31.888498,14,EyesOpen
-21288.650785523747,-10384.352253002198,7689.0224443700845,-1680.2476859387978,27071.717628445345,10778.927597871732,14835.702161276598,11054.32344130557,0.0,0.0,0.0,2019-03-17T21:26:31.889155,14,EyesOpen
-21140.27990582942,-10224.224355724378,7798.098957311983,-1643.344955843086,27223.262455852328,10471.009966255424,14973.34420363238,11097.641122059957,0.0,0.0,0.0,2019-03-17T21:26:31.896551,14,EyesOpen
-21172.17584516714,-10261.55176896474,7877.0900222170385,-1433.5067788966633,27216.06519413772,10906.15372731134,14974.864122255341,11251.89051054603,0.0,0.0,0.0,2019-03-17T21:26:31.897412,14,EyesOpen
-21324.838259796892,-10427.245250611932,7770.829829076509,-1449.1082965264675,27055.06557882614,11259.89243506103,14828.571954795356,11215.837146739621,0.0,0.0,0.0,2019-03-17T21:26:31.904540,14,EyesOpen
-21320.010282994543,-10408.738006202937,7684.306226290015,-1655.437249593407,27047.957724089352,10878.504619420126,14814.445652299602,11058.302051818617,0.0,0.0,0.0,2019-03-17T21:26:31.905289,14,EyesOpen
-21174.969813224056,-10248.654812414028,7769.622834875922,-1672.2234096793427,27196.70858343942,10464.729126063481,14947.192662619671,11061.900682675921,0.004,1.022,0.168,2019-03-17T21:26:31.911800,14,EyesOpen
-21161.111731661767,-10240.36231522111,7872.619673325977,-1461.5582181880736,27231.823173978708,10798.552429503492,14984.184799693205,11223.012056709775,0.0,0.0,0.0,2019-03-17T21:26:31.912636,14,EyesOpen
-21302.195942663664,-10399.976122376458,7804.580963204023,-1413.8819472649036,27086.6932972304,11254.058629758196,14856.757504553498,11241.720466818866,0.0,0.0,0.0,2019-03-17T21:26:31.919287,14,EyesOpen
-21330.69441684418,-10419.869174941681,7690.184735081761,-1620.4791212653067,27030.143383758474,10981.568513103546,14801.63810272671,11082.061956174608,0.0,0.0,0.0,2019-03-17T21:26:31.920050,14,EyesOpen
-21192.38182215474,-10264.03281259928,7745.77352354211,-1693.9046018009903,27168.14305402554,10492.869972332714,14928.23838332157,11047.215586568784,0.0,0.0,0.0,2019-03-17T21:26:31.927513,14,EyesOpen
-21148.259478599964,-10223.754969090816,7858.7168882747765,-1503.9818291642464,27234.34892110216,10699.802422499946,14992.96903526414,11196.636998252512,0.0,0.0,0.0,2019-03-17T21:26:31.928153,14,EyesOpen
-21278.279576096487,-10369.398935961597,7819.847204666997,-1405.835319260993,27108.5980067966,11212.640847282511,14882.104382765816,11253.835112313642,0.0,0.0,0.0,2019-03-17T21:26:31.935356,14,EyesOpen
-21346.854728085367,-10446.490102587952,7693.313979305503,-1589.343141239064,27018.76634583072,11065.365203066493,14794.843172412298,11104.212534929817,0.0,0.0,0.0,2019-03-17T21:26:31.936241,14,EyesOpen
-21220.992055057533,-10308.08810092069,7713.341142337459,-1713.1941572659205,27135.554210609702,10524.631801203705,14896.230685261571,11024.126234546451,0.0,0.0,0.0,2019-03-17T21:26:31.941644,14,EyesOpen
-21138.648228484184,-10217.675294598972,7844.545882290111,-1546.6513093294275,27239.981560704895,10599.845421295813,14993.147849219782,11158.706087911856,0.0,0.0,0.0,2019-03-17T21:26:31.942297,14,EyesOpen
-21260.509939254516,-10344.722610082938,7833.682934484832,-1407.5117000951411,27129.854515773597,11138.38835220198,14896.856534106319,11249.074190744663,-0.002,1.024,0.166,2019-03-17T21:26:31.949080,14,EyesOpen
-21347.54763216348,-10444.903128731625,7709.451938802235,-1548.1041727190225,27018.408717919436,11142.255203992749,14789.702271187578,11129.335895697583,0.0,0.0,0.0,2019-03-17T21:26:31.956867,14,EyesOpen
-21240.72864541157,-10330.059865720257,7701.986456154163,-1708.9920293083228,27109.78264925273,10593.363415403774,14867.463990147591,11020.169975777862,0.0,0.0,0.0,2019-03-17T21:26:31.957672,14,EyesOpen
-21133.17205109263,-10209.3604456616,7833.146492617905,-1583.665798147416,27233.14192690157,10518.820347645325,14980.899093258275,11123.680904350389,0.0,0.0,0.0,2019-03-17T21:26:31.964925,14,EyesOpen
-21227.809337116403,-10315.575935313218,7857.7781150076535,-1412.093807708479,27156.65425737551,11051.618880226479,14915.81081340442,11242.212205196884,0.0,0.0,0.0,2019-03-17T21:26:31.965582,14,EyesOpen
-21336.84114656939,-10436.454169327519,7739.671497305811,-1507.9827914217462,27028.087023268585,11197.799288964188,14795.312559045859,11154.101628554063,0.0,0.0,0.0,2019-03-17T21:26:31.971444,14,EyesOpen
-21258.72179969809,-10342.398028659587,7695.303284562026,-1698.4196541809624,27082.290003572703,10676.221332099598,14841.893594490719,11020.32643798905,0.0,0.0,0.0,2019-03-17T21:26:31.972248,14,EyesOpen
-21128.165260334645,-10200.464451368387,7812.4040737633795,-1617.953374141857,27225.51998204231,10473.535713378873,14973.05363095446,11096.836459259566,0.0,0.0,0.0,2019-03-17T21:26:31.979545,14,EyesOpen
-21192.2030081991,-10271.118315591611,7868.059917457094,-1416.2288804327109,27188.594900202144,10969.11859144194,14946.76797947502,11240.848748785109,0.0,0.0,0.0,2019-03-17T21:26:31.980398,14,EyesOpen
-21342.85376582787,-10443.025582197379,7745.393543886369,-1478.8137649075707,27026.29888371216,11232.086864958628,14798.330044547325,11170.843085151088,0.0,0.0,0.0,2019-03-17T21:26:31.987446,14,EyesOpen
-21299.44667809566,-10392.510639728385,7671.655138928311,-1685.0309592522335,27046.571915933124,10774.636062936313,14808.857716185776,11019.924106588855,-0.004,1.028,0.166,2019-03-17T21:26:31.988073,14,EyesOpen
-21151.835757712815,-10229.477015671375,7777.870628579931,-1652.7773920032255,27201.201284074938,10451.005154967923,14950.813645221431,11062.727697220767,0.0,0.0,0.0,2019-03-17T21:26:31.994682,14,EyesOpen
-21174.008688212478,-10260.344774764155,7863.522513332667,-1447.4989709256854,27199.61431021861,10866.702898347725,14956.91567145773,11218.139376418518,0.0,0.0,0.0,2019-03-17T21:26:31.995513,14,EyesOpen
-21319.876172527813,-10418.908049930102,7770.606311631956,-1450.0023663046798,27044.11322404304,11248.694211088921,14815.898515689198,11197.50871628627,0.0,0.0,0.0,2019-03-17T21:26:32.002200,14,EyesOpen
-21334.74008259059,-10425.77003547788,7654.6231096533675,-1675.598523092094,27004.81885729061,10868.580444881969,14772.558483190356,11020.371141477961,0.0,0.0,0.0,2019-03-17T21:26:32.002888,14,EyesOpen
-21181.34006039382,-10253.572196194196,7742.286651407082,-1694.2622297122753,27165.28203073526,10447.920614233091,14918.38126401678,11026.920202603365,0.0,0.0,0.0,2019-03-17T21:26:32.009164,14,EyesOpen
-21159.323592105342,-10234.707323873918,7856.302899873603,-1484.2228870657548,27209.359670801125,10762.588472674905,14966.213997151137,11190.445565038392,0.0,0.0,0.0,2019-03-17T21:26:32.017194,14,EyesOpen
-21300.676024040702,-10391.571866461261,7790.409957219358,-1428.9917265166912,27065.369733020038,11230.812815524676,14837.020914199462,11212.819661238154,0.0,0.0,0.0,2019-03-17T21:26:32.018005,14,EyesOpen
-21339.478652415117,-10428.273430856876,7668.861170871398,-1629.375115558519,26999.76736304371,10978.461620624259,14770.479770956013,11050.23307207025,0.0,0.0,0.0,2019-03-17T21:26:32.023557,14,EyesOpen
-21200.540208880928,-10265.373917266597,7720.851328474442,-1710.0649130421775,27137.096480977118,10473.066326745311,14892.207371259616,11004.948437803798,0.0,0.0,0.0,2019-03-17T21:26:32.024398,14,EyesOpen
-21147.81244371086,-10211.483861384853,7847.295146858114,-1517.1470066484221,27217.696871482956,10660.552759236427,14971.82428500942,11156.381506488504,-0.002,1.034,0.164,2019-03-17T21:26:32.031747,14,EyesOpen
-21275.329145828386,-10354.803246832282,7818.997838377695,-1406.5282233391076,27100.014936925763,11191.540800516701,14866.882844791753,11224.55432707719,0.0,0.0,0.0,2019-03-17T21:26:32.032427,14,EyesOpen
-21341.646771627282,-10435.671858271582,7693.269275816593,-1579.6871876343714,27010.473848637805,11081.883142218965,14778.168771048639,11083.693633519844,0.0,0.0,0.0,2019-03-17T21:26:32.039720,14,EyesOpen
-21216.097023021823,-10308.557487554252,7703.640485243855,-1711.9424595764233,27118.20925691238,10536.925260654123,14874.61654837329,10997.41589992236,0.0,0.0,0.0,2019-03-17T21:26:32.040443,14,EyesOpen
-21121.21386780904,-10204.376006648065,7843.584757278533,-1542.091553460545,27233.566610046222,10590.502392113494,14986.956416005662,11137.87426207951,0.0,0.0,0.0,2019-03-17T21:26:32.046804,14,EyesOpen
-21236.10183430932,-10317.833461503204,7852.592510294022,-1386.3669498404206,27140.09161473413,11141.428189447903,14911.385168002269,11245.475559887358,0.0,0.0,0.0,2019-03-17T21:26:32.047515,14,EyesOpen
-21347.726446119126,-10426.529994789362,7721.320715108003,-1528.4569893428074,27015.972377773807,11165.098686826073,14796.050166612884,11123.926773539397,0.0,0.0,0.0,2019-03-17T21:26:32.054412,14,EyesOpen
-21240.48277622256,-10310.032702688302,7699.863040430909,-1697.9726192918563,27098.919701447452,10619.134976760743,14868.805094814908,11008.949400061298,0.0,0.0,0.0,2019-03-17T21:26:32.055110,14,EyesOpen
-21123.31493178784,-10180.929026714448,7826.999762892696,-1578.346082967053,27232.761947245832,10522.88836513619,14994.645416098288,11112.90736352293,0.0,0.0,0.0,2019-03-17T21:26:32.062485,14,EyesOpen
-21218.309845722895,-10289.200876855955,7858.739240019231,-1394.9500197112584,27170.132359282063,11054.8598831725,14943.929307929197,11241.720466818866,0.0,0.0,0.0,2019-03-17T21:26:32.063261,14,EyesOpen
-21351.146263020786,-10426.664105256094,7727.690962277766,-1498.8856314284362,27023.527267399702,11213.870193227553,14805.773175450942,11143.372791215515,0.0,1.034,0.16,2019-03-17T21:26:32.069452,14,EyesOpen
-21285.83446572238,-10362.447543435997,7672.28098777306,-1703.9852385503339,27065.41443650895,10694.92974220869,14836.618582799267,10993.16906847585,0.0,0.0,0.0,2019-03-17T21:26:32.076235,14,EyesOpen
-21143.789129708905,-10224.224355724378,7791.952227586774,-1633.8007609606698,27212.488915024867,10459.901149261135,14968.762096019042,11061.006612897709,0.0,0.0,0.0,2019-03-17T21:26:32.077082,14,EyesOpen
-21193.700575077604,-10276.281568560787,7850.290280615125,-1434.3561451859648,27177.441379718948,10935.456864292248,14942.655258495244,11204.705978000877,0.0,0.0,0.0,2019-03-17T21:26:32.083573,14,EyesOpen
-21328.59335286538,-10422.707846487505,7744.477122363702,-1474.186953805322,27028.82463083561,11233.159748692484,14807.337797562814,11153.6322419205,0.0,0.0,0.0,2019-03-17T21:26:32.083896,14,EyesOpen
-21295.222198393607,-10388.844953637714,7665.441353969736,-1679.4430231384067,27038.838212351588,10795.46788876866,14808.991826652507,10998.93581854532,0.0,0.0,0.0,2019-03-17T21:26:32.091624,14,EyesOpen
-21162.00580143998,-10237.50129193083,7757.351727169958,-1669.7870695337142,27180.838844876154,10438.979916450968,14936.776749703498,11019.253554255194,0.0,0.0,0.0,2019-03-17T21:26:32.091920,14,EyesOpen
-21190.325461664852,-10262.043507342758,7839.829664210041,-1468.9789973472355,27182.917557110497,10827.319124617474,14943.594031762366,11164.875169381521,0.0,0.0,0.0,2019-03-17T21:26:32.099911,14,EyesOpen
-21329.88975404379,-10410.861421926193,7764.750154584665,-1448.5271511706294,27043.06269205364,11240.155844706995,14822.961666937073,11167.646785693978,0.0,0.0,0.0,2019-03-17T21:26:32.100548,14,EyesOpen
-21331.94611453368,-10418.751587718914,7663.2508830131155,-1657.9182932279462,27012.418450405414,10898.978817341187,14789.098774087284,11009.105862272485,0.0,0.0,0.0,2019-03-17T21:26:32.106647,14,EyesOpen
-21175.86388300227,-10246.330230990676,7740.990250228674,-1692.0047035222894,27165.349085968624,10457.665974815605,14922.985723374573,11000.99217903521,-0.002,1.024,0.162,2019-03-17T21:26:32.107282,14,EyesOpen
-21142.00099015248,-10209.896887528526,7858.761591763687,-1482.9041341428917,27217.875685438597,10748.149245756775,14978.954491490662,11162.595291447078,0.0,0.0,0.0,2019-03-17T21:26:32.114832,14,EyesOpen
-21288.047288423455,-10365.442677193008,7804.2456870371925,-1415.223051932222,27078.80313143768,11236.93719350543,14859.886748777242,11198.983931420318,0.0,0.0,0.0,2019-03-17T21:26:32.115588,14,EyesOpen
-21341.9373443052,-10428.675762257071,7677.533647720057,-1617.6180979750275,27001.68961306687,11014.246763497205,14784.293149029392,11038.811330653589,0.0,0.0,0.0,2019-03-17T21:26:32.122590,14,EyesOpen
-21198.416793157674,-10271.833571414181,7718.817319729009,-1709.4167124529736,27134.7048443204,10499.530792180394,14898.868191107296,10985.41301314986,0.0,0.0,0.0,2019-03-17T21:26:32.123436,14,EyesOpen
-21135.675446471625,-10206.410015393498,7843.025963667151,-1526.8253119975702,27217.38394706058,10652.81905565489,14978.44040136819,11131.43695967638,0.0,0.0,0.0,2019-03-17T21:26:32.129518,14,EyesOpen
-21265.047343378945,-10349.170607229544,7815.533317987123,-1411.7808832861047,27095.477532801335,11187.40572779247,14874.862417562297,11201.621437266045,0.0,0.0,0.0,2019-03-17T21:26:32.135941,14,EyesOpen
-21339.36689369284,-10423.288991843343,7691.257618815615,-1576.2226672437987,26999.141514198964,11104.994845985753,14783.44378274009,11063.130028620963,0.0,0.0,0.0,2019-03-17T21:26:32.136488,14,EyesOpen
-21219.405081201206,-10287.524496021808,7701.517069520602,-1709.461415941884,27110.743774264312,10561.959214444067,14879.13160075326,10978.12634445743,0.0,0.0,0.0,2019-03-17T21:26:32.143951,14,EyesOpen
-21130.9368766471,-10188.238047151333,7831.313649572569,-1559.794135069148,27222.591903518667,10577.09134544031,14982.687232814698,11101.798546528644,0.0,0.0,0.0,2019-03-17T21:26:32.144332,14,EyesOpen
-21237.666456421193,-10309.94329571048,7840.12023688796,-1403.1084064374456,27129.452184373404,11124.150290983951,14904.836106876865,11207.254076868783,0.0,1.024,0.164,2019-03-17T21:26:32.153450,14,EyesOpen
-21346.295934473987,-10441.863291485703,7712.424720814792,-1532.5473585781288,27000.147342699453,11181.124887600528,14785.455439741068,11092.410813857416,0.0,0.0,0.0,2019-03-17T21:26:32.153821,14,EyesOpen
-21256.978363630576,-10344.968479271947,7683.859191400909,-1711.4730729428618,27071.047076111685,10632.121340289277,14844.218175914071,10965.676422795823,0.0,0.0,0.0,2019-03-17T21:26:32.159716,14,EyesOpen
-21138.447062784086,-10210.187460206445,7815.600373220489,-1596.2945337646645,27208.644414978557,10510.46079521904,14972.383078620802,11065.029926899664,0.0,0.0,0.0,2019-03-17T21:26:32.160159,14,EyesOpen
-21215.024139287965,-10289.647911745062,7860.393269108924,-1405.321229138521,27152.250963717815,11033.13398756194,14930.160633344727,11200.54855353219,0.0,0.0,0.0,2019-03-17T21:26:32.166664,14,EyesOpen
-21337.489347158593,-10427.334657589754,7748.366325898925,-1485.5863434775285,27011.479677138293,11226.40952186698,14801.995730637997,11122.96564852782,0.0,0.0,0.0,2019-03-17T21:26:32.167277,14,EyesOpen
-21282.034669164976,-10356.323165455242,7686.697862946733,-1693.502270400795,27045.342569988083,10723.02588498901,14826.090911160818,10973.343071143994,0.0,0.0,0.0,2019-03-17T21:26:32.174604,14,EyesOpen
-21134.110824359755,-10201.02324497977,7808.112538827961,-1630.8726824370244,27197.490894495357,10472.082849989278,14965.34227911738,11037.447874241814,0.0,0.0,0.0,2019-03-17T21:26:32.174898,14,EyesOpen
-21187.41973488566,-10254.332155505677,7878.788754795642,-1426.644793348884,27174.043914561742,10939.077846894008,14953.227633622604,11189.037405137708,0.0,0.0,0.0,2019-03-17T21:26:32.182980,14,EyesOpen
-21332.817832567434,-10400.445509010018,7772.796782588575,-1458.026642564135,27022.566142388125,11258.886606560542,14816.434957556125,11148.424285462414,0.0,0.0,0.0,2019-03-17T21:26:32.183679,14,EyesOpen
-21301.391279863274,-10378.317281999265,7686.407290268814,-1669.720014300348,27022.789659832677,10835.298697388018,14809.282399330426,10990.308045185571,0.004,1.028,0.16,2019-03-17T21:26:32.189353,14,EyesOpen
-21156.261403114964,-10234.886137829559,7781.335148970503,-1667.4848398548174,27172.56869942769,10459.364707394208,14945.560985274433,11011.452795440293,0.0,0.0,0.0,2019-03-17T21:26:32.190028,14,EyesOpen
-21162.609298540272,-10237.322477975187,7883.817897298086,-1452.1481337723892,27195.389830516557,10836.103360188408,14974.4841425996,11179.873189911032,0.0,0.0,0.0,2019-03-17T21:26:32.196709,14,EyesOpen
-21309.79553577847,-10393.225895550955,7804.200983548282,-1427.8517875494704,27045.633142666,11258.573682138167,14840.12780667875,11184.589407991101,0.0,0.0,0.0,2019-03-17T21:26:32.204329,14,EyesOpen
-21323.094823729378,-10406.72634920196,7690.967046137696,-1641.1991883753765,27000.169694443906,10935.345105569972,14788.271759542438,11022.025170567653,0.0,0.0,0.0,2019-03-17T21:26:32.204935,14,EyesOpen
-21171.929975978135,-10241.345791977143,7755.585939357989,-1696.2515349687976,27140.784518812245,10467.41133539812,14914.38030175928,11004.970789548253,0.0,0.0,0.0,2019-03-17T21:26:32.211771,14,EyesOpen
-21139.542298262393,-10207.818175294182,7877.157077450404,-1488.313256301076,27199.86017940762,10734.31351593894,14975.758192033552,11172.810038663154,0.0,0.0,0.0,2019-03-17T21:26:32.212430,14,EyesOpen
-21282.660518009725,-10351.852816564182,7828.877309426941,-1402.3707988704205,27066.59907896508,11238.36770515057,14858.210367943093,11224.666085799467,0.0,0.0,0.0,2019-03-17T21:26:32.219204,14,EyesOpen
-21337.779919836514,-10408.939171903035,7705.607438755923,-1592.986475585279,26984.322307625094,11041.784112666144,14777.92290185963,11072.115429891996,0.0,0.0,0.0,2019-03-17T21:26:32.220057,14,EyesOpen
-21190.325461664852,-10254.55567295023,7752.948433512263,-1685.6121046080716,27118.41042261248,10519.468548234528,14895.04604280544,11020.952286833797,0.0,0.0,0.0,2019-03-17T21:26:32.227361,14,EyesOpen
-21118.84458289678,-10180.437288336432,7883.214400197792,-1504.2053466087993,27209.583188245677,10650.24860504253,14979.401526379768,11169.25611129476,-0.002,1.032,0.156,2019-03-17T21:26:32.228060,14,EyesOpen
-21240.549831455926,-10303.953028196458,7869.848057013519,-1373.4476415452532,27099.232625869827,11192.144297616995,14883.266673477492,11253.186911724439,0.0,0.0,0.0,2019-03-17T21:26:32.236692,14,EyesOpen
-21332.817832567434,-10408.91682015858,7740.34204963947,-1543.566768594595,26983.852920991532,11124.038532261675,14773.452552968569,11112.281514678183,0.0,0.0,0.0,2019-03-17T21:26:32.237560,14,EyesOpen
-21232.77142438548,-10305.204725885955,7732.1613111688275,-1702.5547269051942,27073.662230212954,10561.66864176615,14846.006315470495,11004.546106403603,0.0,0.0,0.0,2019-03-17T21:26:32.243038,14,EyesOpen
-21128.90286790167,-10195.949398988414,7866.160019178394,-1551.3675274094974,27194.67457469399,10552.28090909492,14961.475427326612,11132.599250388057,0.0,0.0,0.0,2019-03-17T21:26:32.243676,14,EyesOpen
-21231.519726695984,-10309.675074777017,7876.531228605656,-1384.0423684170687,27106.6981085179,11095.897685992442,14890.598045658833,11249.185949466939,0.0,0.0,0.0,2019-03-17T21:26:32.250013,14,EyesOpen
-21336.550573891473,-10414.840032439237,7760.1009917379615,-1492.2695150696654,26989.44085710536,11192.479573783825,14781.521532716935,11159.756619901254,0.0,0.0,0.0,2019-03-17T21:26:32.250745,14,EyesOpen
-21244.081407079866,-10310.457385832953,7732.518939080112,-1670.3905666340074,27059.78179690621,10659.949262136133,14840.396027612214,11039.839510898533,0.0,0.0,0.0,2019-03-17T21:26:32.256966,14,EyesOpen
-21124.834850410803,-10178.179762146445,7854.224187639259,-1577.6308271444832,27191.90295838153,10504.045844560367,14960.24608138157,11129.224136975305,0.0,0.0,0.0,2019-03-17T21:26:32.265379,14,EyesOpen
-21201.99307227052,-10267.40792601203,7898.458289916312,-1390.189098142278,27138.32582692216,11016.392530964915,14918.224801805593,11268.721374120876,0.0,0.0,0.0,2019-03-17T21:26:32.266095,14,EyesOpen
-21339.255134970565,-10411.129642859656,7778.474125680224,-1468.3755002469422,26987.7197727823,11231.997457980808,14777.20764603706,11192.926608672931,-0.008,1.028,0.162,2019-03-17T21:26:32.271794,14,EyesOpen
-21283.68869825467,-10351.182264230521,7715.889241205364,-1673.4527556243845,27016.754688829744,10744.50591141056,14795.044338112395,11043.795769667122,0.0,0.0,0.0,2019-03-17T21:26:32.272503,14,EyesOpen
-21137.91062091716,-10181.756041259294,7838.1756351203485,-1614.7123711958375,27176.65906866301,10470.294710432854,14942.319982328414,11108.81699428761,0.0,0.0,0.0,2019-03-17T21:26:32.279400,14,EyesOpen
-21177.026173713944,-10232.896832573037,7908.851851088029,-1410.2386129186884,27158.95648705441,10920.056512362542,14935.525052014,11266.352089208614,0.0,0.0,0.0,2019-03-17T21:26:32.280037,14,EyesOpen
-21319.98793125009,-10398.0538723533,7800.1329660574165,-1432.4562469072637,27004.997671246252,11254.796237325221,14793.971454378541,11230.388132380025,0.0,0.0,0.0,2019-03-17T21:26:32.287663,14,EyesOpen
-21305.951035732156,-10384.776936146849,7704.0428166440515,-1648.016470434245,26991.027830961684,10843.702953303213,14775.821837880832,11068.159171123407,0.0,0.0,0.0,2019-03-17T21:26:32.288376,14,EyesOpen
-21161.223490384044,-10219.59754462213,7793.516849698645,-1654.856104237569,27143.13145198005,10452.748591035437,14910.893429624251,11081.771383496689,0.0,0.0,0.0,2019-03-17T21:26:32.294853,14,EyesOpen
-21157.200176382088,-10211.662675340494,7900.067615517094,-1441.0393167781017,27173.038086061253,10809.929467431244,14944.957488174141,11245.60967035409,0.0,0.0,0.0,2019-03-17T21:26:32.295554,14,EyesOpen
-21298.64201529527,-10367.879017338637,7824.362257046969,-1405.4106361163422,27026.20947673434,11245.296745931715,14816.703178489588,11256.025583270262,0.0,0.0,0.0,2019-03-17T21:26:32.302191,14,EyesOpen
-21317.909219015746,-10387.325035014754,7709.675456246789,-1610.7114089383376,26978.510854066713,10945.895128952878,14768.199893021572,11095.67416854789,0.0,0.0,0.0,2019-03-17T21:26:32.302823,14,EyesOpen
-21180.155417937687,-10233.1650535065,7762.962015028241,-1677.5878283486163,27111.45903008688,10457.934195749069,14887.222932246083,11060.134894863952,0.0,0.0,0.0,2019-03-17T21:26:32.310197,14,EyesOpen
-21145.241993098498,-10189.579151818652,7881.873295530474,-1479.86429689697,27174.155673284018,10695.242666631064,14949.651354509755,11215.546574061702,-0.006,1.022,0.162,2019-03-17T21:26:32.310861,14,EyesOpen
-21286.54972154495,-10351.182264230521,7834.30878332958,-1389.6303045308955,27041.900401341965,11207.567001291156,14834.986905454029,11267.737897364843,0.0,0.0,0.0,2019-03-17T21:26:32.317439,14,EyesOpen
-21344.060760028453,-10416.605820251205,7707.529688779079,-1573.4286991868853,26957.880193934467,11042.18644406634,14751.994878291474,11118.96468627032,0.0,0.0,0.0,2019-03-17T21:26:32.323711,14,EyesOpen
-21213.839496831835,-10272.705289447938,7731.781331513087,-1692.2282209668424,27075.383314536015,10503.419995715618,14850.208443428093,11045.47215050127,0.0,0.0,0.0,2019-03-17T21:26:32.324704,14,EyesOpen
-21132.590905736794,-10191.143773930524,7864.46128659979,-1513.7942449801262,27173.239251761348,10607.713235344081,14942.878775939796,11188.45625978187,0.0,0.0,0.0,2019-03-17T21:26:32.331812,14,EyesOpen
-21259.258241565018,-10321.208574915956,7852.9054347163965,-1378.6779497477949,27061.838157396098,11150.368887230026,14849.448484116612,11275.89628409103,0.0,0.0,0.0,2019-03-17T21:26:32.332473,14,EyesOpen
-21352.93440257721,-10411.733139959948,7726.975706455196,-1536.4142103688969,26949.744158952733,11117.109491480529,14741.154282230651,11143.864529593531,0.0,0.0,0.0,2019-03-17T21:26:32.339755,14,EyesOpen
-21229.888049350746,-10292.285417590789,7734.955279225741,-1683.5780958626385,27052.986866591797,10576.66666229566,14830.427149585146,11045.09217084553,0.0,0.0,0.0,2019-03-17T21:26:32.340679,14,EyesOpen
-21126.019492866933,-10185.153506416502,7863.991899966229,-1547.8583035300142,27170.534690682256,10534.913603653145,14942.074113139406,11156.40385823296,0.0,0.0,0.0,2019-03-17T21:26:32.346960,14,EyesOpen
-21227.49641269403,-10292.17365886851,7882.789717053141,-1376.3310165799876,27090.850721699087,11076.80929622761,14874.951824540118,11273.75051662332,0.0,0.0,0.0,2019-03-17T21:26:32.347655,14,EyesOpen
-21351.88387058781,-10410.39203529263,7750.757962555643,-1490.4366720243302,26951.934629909352,11187.696300470388,14745.53522414389,11168.138524071996,-0.002,1.016,0.166,2019-03-17T21:26:32.354456,14,EyesOpen
-21265.9190614127,-10314.413644601542,7712.245906859149,-1674.1233079580436,27020.085098753585,10660.910387147713,14800.341701548303,11038.94544112032,0.0,0.0,0.0,2019-03-17T21:26:32.355097,14,EyesOpen
-21135.89896391618,-10182.49364882632,7834.912280429874,-1581.40827195743,27166.399617958024,10484.242198972965,14933.71456071312,11124.552622384146,0.0,0.0,0.0,2019-03-17T21:26:32.362434,14,EyesOpen
-21207.558656639892,-10264.79277191076,7878.229961184259,-1394.1677086553227,27114.92355047745,10983.468411382248,14895.157801527715,11260.98767053934,0.0,0.0,0.0,2019-03-17T21:26:32.363490,14,EyesOpen
-21336.50587040256,-10408.313323058286,7767.477067408213,-1457.9372355863138,26971.157130140917,11227.705923045389,14763.774247619422,11197.642826753001,0.0,0.0,0.0,2019-03-17T21:26:32.370467,14,EyesOpen
-21293.858741981836,-10357.507807911374,7694.118642105895,-1673.340996902108,26988.90441523843,10748.953908557167,14773.184332035105,11044.198101067317,0.0,0.0,0.0,2019-03-17T21:26:32.371396,14,EyesOpen
-21149.265307100453,-10202.789032791738,7802.792823647598,-1635.3877348169965,27139.37635891156,10444.053762442323,14911.496926724545,11090.667377789901,0.0,0.0,0.0,2019-03-17T21:26:32.376618,14,EyesOpen
-21173.874577745748,-10236.339001219154,7883.884952531452,-1420.8109880460488,27132.98375999734,10879.555151409526,14915.274371537493,11247.643679099523,0.0,0.0,0.0,2019-03-17T21:26:32.383840,14,EyesOpen
-21325.844088297377,-10392.443584495019,7787.571285673534,-1429.3046509390654,26981.014249445707,11239.351181906603,14775.30774775836,11218.876983985541,0.0,0.0,0.0,2019-03-17T21:26:32.384659,14,EyesOpen
-21326.827565053412,-10377.982005832435,7688.016615869596,-1646.7200692558372,26963.557537026114,10848.843854527933,14750.87729106871,11054.6587174724,0.0,0.0,0.0,2019-03-17T21:26:32.392069,14,EyesOpen
-21174.880406246237,-10208.958114261402,7768.639358119889,-1670.2564561672755,27111.28021613124,10430.642715769138,14880.204484487116,11055.083400617052,0.002,1.016,0.158,2019-03-17T21:26:32.392798,14,EyesOpen
-21155.74731299249,-10203.392529892031,7874.206647182304,-1458.1384012864116,27147.84767006012,10764.84599886489,14918.4706709946,11215.010132194773,0.0,0.0,0.0,2019-03-17T21:26:32.399975,14,EyesOpen
-21299.334919373385,-10370.114191784167,7809.990085362207,-1406.4611681057415,27006.137610213475,11225.56015557768,14792.049204355384,11236.087827216128,0.0,0.0,0.0,2019-03-17T21:26:32.400617,14,EyesOpen
-21338.472823914628,-10400.244343309922,7689.357720536915,-1610.6443537049715,26945.318513550585,10951.460713322249,14731.185404203583,11075.311729349105,0.0,0.0,0.0,2019-03-17T21:26:32.406594,14,EyesOpen
-21203.311825193385,-10254.913300861514,7738.352744382948,-1687.0649679976664,27076.009163380764,10456.011945725912,14848.50971084949,11034.028057340152,0.0,0.0,0.0,2019-03-17T21:26:32.407291,14,EyesOpen
-21146.13606287671,-10194.474183854365,7869.848057013519,-1482.1665265758666,27157.57067889818,10678.63532050077,14931.76995894551,11198.983931420318,0.0,0.0,0.0,2019-03-17T21:26:32.414503,14,EyesOpen
-21289.075468668398,-10341.973345514936,7831.403056550391,-1384.1764788838004,27026.63415987899,11199.587428520612,14822.626390770245,11257.858426315597,0.0,0.0,0.0,2019-03-17T21:26:32.415250,14,EyesOpen
-21353.962582822154,-10426.909974445101,7695.683264217766,-1578.2343242447764,26928.800574398112,11046.455627257303,14727.229145434994,11100.278627905684,0.0,0.0,0.0,2019-03-17T21:26:32.424267,14,EyesOpen
-21221.506145180007,-10279.70138546245,7715.352799338437,-1705.6392676400267,27045.029645565708,10501.542449181372,14827.342608850315,11020.058217055586,0.0,0.0,0.0,2019-03-17T21:26:32.424942,14,EyesOpen
-21137.061254627857,-10179.29734936921,7848.569196292066,-1538.5152743476958,27153.41325442949,10580.04177570841,14929.355970544335,11157.610852433545,0.0,0.0,0.0,2019-03-17T21:26:32.430367,14,EyesOpen
-21252.619773461793,-10299.236810116388,7840.857844454986,-1398.0122087016355,27049.857622368054,11127.458349163337,14840.485434590035,11249.32005993367,0.008,1.022,0.154,2019-03-17T21:26:32.430992,14,EyesOpen
-21353.493196188592,-10408.559192247296,7708.401406812836,-1547.5453791076397,26928.88998137593,11123.703256094845,14725.86568902322,11120.797529315654,0.0,0.0,0.0,2019-03-17T21:26:32.436560,14,EyesOpen
-21246.562450714406,-10288.351510566654,7697.292589818549,-1706.3098199736858,27023.43786042188,10577.225455907042,14803.40389053868,11009.977580306242,0.0,0.0,0.0,2019-03-17T21:26:32.437230,14,EyesOpen
-21136.636571483206,-10180.973730203359,7825.636306480922,-1578.6143039005167,27150.239306716838,10509.499670207462,14920.325865784393,11113.019122245209,0.0,0.0,0.0,2019-03-17T21:26:32.444461,14,EyesOpen
-21230.37978772876,-10287.770365210816,7850.871425970963,-1403.3989791153645,27073.01402962375,11043.728714433755,14858.769161554475,11230.589298080124,0.0,0.0,0.0,2019-03-17T21:26:32.452313,14,EyesOpen
-21352.308553732462,-10415.220012094976,7727.735665766677,-1505.8817274429475,26937.227182057763,11178.621492221535,14730.984238503486,11133.426264932903,0.0,0.0,0.0,2019-03-17T21:26:32.452959,14,EyesOpen
-21277.49726504055,-10322.572031327729,7685.267351301593,-1694.2622297122753,26996.995746731252,10655.38950626725,14776.224169281028,10997.013568522165,0.0,0.0,0.0,2019-03-17T21:26:32.458879,14,EyesOpen
-21150.494653045494,-10185.600541305606,7797.271942767137,-1619.3615340425413,27133.810774542188,10445.93130897657,14899.80696437442,11064.739354221745,0.0,0.0,0.0,2019-03-17T21:26:32.459513,14,EyesOpen
-21203.021252515467,-10249.861806614615,7859.0074609526955,-1412.4961391086745,27105.93814920642,10948.420876076327,14881.478533921068,11214.98778045032,0.0,0.0,0.0,2019-03-17T21:26:32.466878,14,EyesOpen
-21352.42031245474,-10413.096596371723,7740.543215339568,-1467.7496514021936,26953.8121764436,11219.011094452275,14744.194119476571,11155.085105310096,0.0,0.0,0.0,2019-03-17T21:26:32.467548,14,EyesOpen
-21314.489402114083,-10364.61566264816,7663.832028368954,-1677.2972556706973,26972.05119991913,10757.447571450182,14753.738314358989,11002.288580213617,0.002,1.026,0.154,2019-03-17T21:26:32.474775,14,EyesOpen
-21167.48197883153,-10205.270076426277,7768.2593784641485,-1650.0057756907675,27121.673777302956,10426.842919211736,14888.51933342449,11038.721923675766,0.0,0.0,0.0,2019-03-17T21:26:32.475622,14,EyesOpen
-21189.565502353373,-10232.896832573037,7847.473960813757,-1443.8779883239256,27118.499829590302,10838.606755567404,14891.715632881598,11194.334768573615,0.0,0.0,0.0,2019-03-17T21:26:32.482145,14,EyesOpen
-21335.65650411326,-10389.403747249096,7758.089334736984,-1441.5534069005737,26972.878214463977,11226.342466633614,14758.767456861433,11182.018957378741,0.0,0.0,0.0,2019-03-17T21:26:32.482799,14,EyesOpen
-21330.761472077545,-10384.843991380214,7663.094420801929,-1654.632586793016,26951.174670597873,10863.975985524177,14732.548860615358,11024.685028157834,0.0,0.0,0.0,2019-03-17T21:26:32.489598,14,EyesOpen
-21190.325461664852,-10231.64513488354,7740.677325806299,-1684.561572618672,27095.142256634506,10431.514433802895,14863.440676145636,11020.482900200237,0.0,0.0,0.0,2019-03-17T21:26:32.490237,14,EyesOpen
-21168.979545710034,-10207.348788660622,7853.687745772332,-1470.253046781188,27139.532821122746,10747.389286445296,14914.067377336905,11184.12002135754,0.0,0.0,0.0,2019-03-17T21:26:32.498136,14,EyesOpen
-21315.048195725467,-10363.185151003021,7785.246704250182,-1423.4931973806856,26994.179426929884,11213.26669612726,14786.26010254146,11202.828431466633,0.0,0.0,0.0,2019-03-17T21:26:32.498828,14,EyesOpen
-21351.928574076723,-10404.379416034153,7669.799944138521,-1624.1001038670665,26935.23787680124,10965.072925695531,14726.871517523708,11044.399266767416,0.0,0.0,0.0,2019-03-17T21:26:32.504716,14,EyesOpen
-21203.66945310467,-10242.753951877827,7721.253659874637,-1698.4867094143283,27073.729285446323,10459.431762627573,14849.470835861068,10999.785184834622,0.0,0.0,0.0,2019-03-17T21:26:32.511462,14,EyesOpen
-21152.171033879644,-10193.11072744259,7838.823835709552,-1510.1062071450006,27143.980818269352,10640.369133993285,14918.850650650342,11144.669192393923,0.002,1.034,0.154,2019-03-17T21:26:32.512244,14,EyesOpen
-21297.949111217156,-10355.987889288413,7796.780204389121,-1415.1112932099454,27007.25519743624,11158.706087911856,14801.615750982255,11198.35808257557,0.0,0.0,0.0,2019-03-17T21:26:32.519099,14,EyesOpen
-21356.890661345802,-10413.431872538553,7678.897104131831,-1581.1400510239664,26921.692719661325,11052.28943256014,14722.736444799477,11065.43225829986,0.0,0.0,0.0,2019-03-17T21:26:32.519877,14,EyesOpen
-21224.322464981375,-10259.093077074656,7702.701711976732,-1701.5712501491607,27040.11226178554,10516.428710988606,14829.287210617926,10990.643321352401,0.0,0.0,0.0,2019-03-17T21:26:32.527190,14,EyesOpen
-21140.592830251793,-10179.409108091488,7829.8384344385195,-1544.371431394986,27143.578486869155,10562.518008055451,14927.970162388106,11118.495299636757,0.0,0.0,0.0,2019-03-17T21:26:32.528099,14,EyesOpen
-21264.93558465667,-10314.324237623721,7814.482785997723,-1409.4563018627528,27033.004407048753,11095.741223781255,14830.293039118415,11205.354178590082,0.0,0.0,0.0,2019-03-17T21:26:32.535131,14,EyesOpen
-21360.399885225284,-10422.126701131667,7685.267351301593,-1550.182884953366,26910.18157126684,11116.48364263578,14713.326360383793,11082.508991063714,0.0,0.0,0.0,2019-03-17T21:26:32.535647,14,EyesOpen
-21266.142578857252,-10312.737263767394,7663.586159179946,-1721.978392836856,26991.541921084157,10567.658909280171,14781.029794338918,10965.050573951075,0.0,0.0,0.0,2019-03-17T21:26:32.541851,14,EyesOpen
-21155.546147292396,-10186.963997717381,7793.15922178736,-1599.6696471774158,27124.534800593236,10476.21792271351,14908.390034245258,11070.23788335775,0.0,0.0,0.0,2019-03-17T21:26:32.542524,14,EyesOpen
-21241.73447391206,-10281.847152930159,7824.049332624595,-1415.7147903102386,27056.429035237914,11010.335208217528,14858.053905731906,11198.760413975766,0.0,0.0,0.0,2019-03-17T21:26:32.549778,14,EyesOpen
-21365.831359127922,-10421.724369731472,7706.47915678968,-1508.7651024776821,26919.837524871535,11177.570960232135,14729.084340224785,11112.125052466996,0.004,1.028,0.158,2019-03-17T21:26:32.550410,14,EyesOpen
-21293.478762326093,-10339.157025713566,7660.769839378577,-1702.2641542272752,26971.87238596349,10663.257320315519,14764.735372631,10971.59963507648,0.0,0.0,0.0,2019-03-17T21:26:32.557927,14,EyesOpen
-21152.03692341291,-10183.052442437702,7782.296273982081,-1627.1846446018988,27119.84093425762,10433.59314603724,14899.605798674322,11041.404133010405,0.0,0.0,0.0,2019-03-17T21:26:32.558809,14,EyesOpen
-21198.77442106896,-10239.959983820914,7845.752876490698,-1425.7283718262163,27088.615547253557,10912.993361114664,14880.47270542058,11191.049062138685,0.0,0.0,0.0,2019-03-17T21:26:32.565036,14,EyesOpen
-21338.87515531482,-10390.163706560577,7740.498511850657,-1467.3920234909087,26940.602295470515,11204.951847189886,14741.936593286586,11140.087084780585,0.0,0.0,0.0,2019-03-17T21:26:32.571396,14,EyesOpen
-21299.111401928832,-10357.932491056024,7666.961272592697,-1676.0902614701108,26952.113443864997,10764.17544653123,14743.903546798652,10985.033033494119,0.0,0.0,0.0,2019-03-17T21:26:32.572164,14,EyesOpen
-21157.200176382088,-10191.859029753094,7768.192323230783,-1658.2982728836862,27105.93814920642,10415.532936517351,14884.5630746559,11019.477071699748,0.0,0.0,0.0,2019-03-17T21:26:32.579450,14,EyesOpen
-21173.941632979113,-10214.836623053148,7850.066763170572,-1453.3998314618864,27110.296739375204,10807.537830774527,14895.671891650189,11172.54181772969,0.0,0.0,0.0,2019-03-17T21:26:32.580416,14,EyesOpen
-21315.27171317002,-10374.048098808302,7770.114573253939,-1438.0665347655458,26969.033714417663,11212.998475193795,14768.758686632955,11169.367870017037,0.0,0.0,0.0,2019-03-17T21:26:32.587323,14,EyesOpen
-21324.92766677471,-10374.763354630872,7664.368470235881,-1649.2011128903764,26932.66742618888,10869.519218149093,14733.040598993373,11010.044635539609,0.0,0.0,0.0,2019-03-17T21:26:32.588192,14,EyesOpen
-21181.273005160452,-10217.474128898875,7728.920308222808,-1697.235011724831,27068.208404565863,10414.549459761318,14855.930490008652,10991.425632408338,0.004,1.026,0.16,2019-03-17T21:26:32.594835,14,EyesOpen
-21159.61416478326,-10194.943570487925,7843.540053789623,-1488.9391051458247,27118.65629180149,10701.277637633997,14909.708787168121,11150.97238433032,0.0,0.0,0.0,2019-03-17T21:26:32.595476,14,EyesOpen
-21310.197867178664,-10356.881959066624,7781.379852459414,-1423.8508252919705,26976.67801102138,11182.443640523392,14783.533189717913,11181.214294578349,0.0,0.0,0.0,2019-03-17T21:26:32.602182,14,EyesOpen
-21350.90039383178,-10405.653465468105,7657.9088160882975,-1622.8707579220245,26903.65486188589,10956.780428502612,14711.091185938263,11021.600487423002,0.0,0.0,0.0,2019-03-17T21:26:32.602837,14,EyesOpen
-21201.680147848147,-10237.143664019546,7709.586049268967,-1703.761721105781,27043.44267170938,10450.312250889809,14833.668152531167,10978.483972368715,0.0,0.0,0.0,2019-03-17T21:26:32.610331,14,EyesOpen
-21143.587964008806,-10168.054421908191,7833.1241408734495,-1521.3044311171093,27123.61837907057,10607.020331265967,14910.80402264643,11122.920945038908,0.0,0.0,0.0,2019-03-17T21:26:32.611210,14,EyesOpen
-21269.227119592088,-10315.195955657478,7808.224297550238,-1406.9082029948477,27004.617691590513,11141.942279570376,14808.097756874295,11196.994626163796,0.0,0.0,0.0,2019-03-17T21:26:32.617299,14,EyesOpen
-21356.443626456694,-10400.57961947675,7680.081746587962,-1579.0613387896228,26899.788010095122,11053.272909316172,14710.688854538066,11054.837531428044,0.0,0.0,0.0,2019-03-17T21:26:32.617930,14,EyesOpen
-21232.234982518552,-10259.920091619504,7696.979665396174,-1712.6130119100824,27013.357223672538,10510.438443474584,14807.673073729644,10969.319757142039,0.0,0.0,0.0,2019-03-17T21:26:32.623862,14,EyesOpen
-21129.70753070206,-10163.718183483861,7827.111521614972,-1558.6318443574721,27124.870076760064,10529.102150094766,14913.218011047604,11096.165906925906,0.0,0.0,0.0,2019-03-17T21:26:32.631739,14,EyesOpen
-21243.1649855572,-10284.015272142324,7832.40888505088,-1408.1822524288002,27025.74009010078,11074.19414212634,14832.528213563946,11197.754585475277,0.002,1.026,0.164,2019-03-17T21:26:32.632494,14,EyesOpen
-21351.45918744316,-10400.557267732294,7709.630752757878,-1533.9331667343579,26903.65486188589,11135.81790158962,14720.43421512058,11088.275741133182,0.0,0.0,0.0,2019-03-17T21:26:32.639526,14,EyesOpen
-21257.805378175424,-10297.60513277115,7683.322749533982,-1709.1708432639653,26979.270813378196,10588.870714768258,14782.482657728513,10964.849408250977,0.0,0.0,0.0,2019-03-17T21:26:32.640032,14,EyesOpen
-21127.89703940118,-10158.845503192604,7815.443911009302,-1593.8134901301255,27118.991567968318,10466.897245275646,14910.826374390886,11064.135857121451,0.0,0.0,0.0,2019-03-17T21:26:32.646959,14,EyesOpen
-21203.44593566012,-10242.418675710998,7859.74506851972,-1405.0977116939678,27063.223965552326,10992.967902775754,14869.27448144847,11198.849820953586,0.0,0.0,0.0,2019-03-17T21:26:32.647683,14,EyesOpen
-21337.22112622513,-10380.440697722519,7738.330392638492,-1490.7495964467046,26919.256379515697,11186.019919636241,14737.689761840078,11117.288305436172,0.0,0.0,0.0,2019-03-17T21:26:32.654369,14,EyesOpen
-21276.82671270689,-10312.536098067296,7682.205162311217,-1692.2729244557531,26960.71886548029,10685.653768259737,14766.612919165245,10974.326547900027,0.0,0.0,0.0,2019-03-17T21:26:32.655260,14,EyesOpen
-21137.41888253914,-10171.116610898569,7797.651922422877,-1634.2030923608652,27108.396841096503,10428.698114001527,14902.355063242325,11032.731656161744,0.0,0.0,0.0,2019-03-17T21:26:32.662422,14,EyesOpen
-21182.9493859946,-10224.604335380118,7871.010347725195,-1427.8294358050152,27086.380372808027,10894.10613704993,14892.542647426446,11185.103498113573,0.0,0.0,0.0,2019-03-17T21:26:32.663326,14,EyesOpen
-21339.27748671502,-10384.843991380214,7764.414878417836,-1464.9109798563695,26930.029920343153,11203.45428031138,14752.128988758206,11140.981154558796,0.0,0.0,0.0,2019-03-17T21:26:32.671071,14,EyesOpen
-21309.035576466988,-10361.32995621323,7677.734813420155,-1676.917276014957,26927.593580197525,10778.32410077144,14742.473035153513,10982.104954970475,0.002,1.028,0.162,2019-03-17T21:26:32.671704,14,EyesOpen
-21159.301240360885,-10196.798765277716,7771.388622687891,-1672.5810375906276,27078.55726224867,10399.126756087155,14877.634033874756,11002.199173235795,0.0,0.0,0.0,2019-03-17T21:26:32.677544,14,EyesOpen
-21159.077722916332,-10191.613160564084,7876.374766394469,-1453.0198518061463,27106.02755618424,10781.60980720637,14914.156784314728,11170.753678173265,0.0,0.0,0.0,2019-03-17T21:26:32.678162,14,EyesOpen
-21306.956864232645,-10357.708973611472,7791.326378742026,-1433.7302963412162,26952.471071776283,11198.581600020123,14779.778096649421,11165.501018226269,0.0,0.0,0.0,2019-03-17T21:26:32.684089,14,EyesOpen
-21323.340692918384,-10367.163761516067,7685.244999557138,-1641.0427261641892,26911.254455000693,10874.146029251342,14736.594526361767,11000.79101333511,0.0,0.0,0.0,2019-03-17T21:26:32.684746,14,EyesOpen
-21173.18167366763,-10207.527602616263,7751.875549778409,-1688.4284244094401,27054.909116614952,10408.782709691848,14865.22881570206,10979.13217295792,0.0,0.0,0.0,2019-03-17T21:26:32.692353,14,EyesOpen
-21142.47037678604,-10181.644282537018,7863.70132728831,-1486.2568958111879,27106.251073628795,10667.101820361831,14919.208278561626,11129.402950930948,0.0,0.0,0.0,2019-03-17T21:26:32.700072,14,EyesOpen
-21281.855855209335,-10332.071522721235,7812.292315041103,-1406.8634995059372,26971.581813285567,11168.809076405654,14801.101660859784,11171.82656190712,0.0,0.0,0.0,2019-03-17T21:26:32.700851,14,EyesOpen
-21331.65554185576,-10371.43294470703,7690.564714737501,-1596.6745134204048,26899.676251372846,10976.36055664546,14728.39143614667,11021.533432189635,0.0,0.0,0.0,2019-03-17T21:26:32.706756,14,EyesOpen
-21196.986281512534,-10228.538242404253,7723.041799431062,-1700.8336425821356,27025.58362788959,10448.97114622249,14838.160853166683,10959.641451792892,0.0,0.0,0.0,2019-03-17T21:26:32.707389,14,EyesOpen
-21126.55593473386,-10164.098163139603,7850.849074226508,-1522.7125910177936,27115.37058536656,10576.532551828928,14925.019732120007,11103.810203529622,-0.002,1.028,0.164,2019-03-17T21:26:32.714652,14,EyesOpen
-21255.033761862967,-10302.74603399587,7825.770416947654,-1404.6953802937724,26992.503046095735,11107.922924509397,14820.994713425007,11178.286216054705,0.0,0.0,0.0,2019-03-17T21:26:32.715294,14,EyesOpen
-21343.323152461428,-10397.830354908749,7699.751281708633,-1565.2926642051536,26888.23215821173,11046.679144701857,14719.137813942172,11043.393438266927,0.0,0.0,0.0,2019-03-17T21:26:32.722688,14,EyesOpen
-21226.66939814918,-10271.297129547254,7705.585087011467,-1709.3496572196077,26994.894682752452,10492.959379310534,14806.98016965153,10947.415047575838,0.0,0.0,0.0,2019-03-17T21:26:32.723538,14,EyesOpen
-21129.685178957603,-10170.848389965104,7841.88602469993,-1569.1818677403771,27110.45320158639,10478.698966348049,14916.19079306016,11063.755877465712,0.0,0.0,0.0,2019-03-17T21:26:32.730782,14,EyesOpen
-21227.027026060467,-10275.543960993762,7863.03077495465,-1402.9519442262583,27024.44368892237,11028.462472970781,14848.88969050523,11178.800306177176,0.0,0.0,0.0,2019-03-17T21:26:32.731481,14,EyesOpen
-21337.355236691863,-10389.962540860479,7736.698715293255,-1521.6844107728496,26895.921158304354,11111.588610600069,14731.051293736851,11074.23884561525,0.0,0.0,0.0,2019-03-17T21:26:32.737367,14,EyesOpen
-21259.370000287297,-10298.812126971738,7698.074900874484,-1710.467244442373,26958.28252533466,10564.976699945533,14780.940387361097,10939.413123060838,0.0,0.0,0.0,2019-03-17T21:26:32.738005,14,EyesOpen
-21138.156490106165,-10164.053459650691,7826.038637881117,-1607.8056821591476,27103.41240208297,10414.258887083399,14915.453185493136,11031.725827661256,0.0,0.0,0.0,2019-03-17T21:26:32.745530,14,EyesOpen
-21206.86575256178,-10250.711172903917,7872.977301237262,-1412.674953064317,27059.64768643948,10930.695942723269,14883.601949644322,11172.653576451967,0.0,0.0,0.0,2019-03-17T21:26:32.746252,14,EyesOpen
-21331.94611453368,-10392.398881006107,7756.211788202738,-1485.5639917330734,26915.38952772493,11146.189111016884,14752.643078880677,11100.412738372415,0.0,1.032,0.162,2019-03-17T21:26:32.752528,14,EyesOpen
-21282.705221498636,-10330.015162231346,7687.994264125141,-1694.664561112471,26941.406958270905,10648.259299786008,14769.384535477702,10946.275108608617,0.0,0.0,0.0,2019-03-17T21:26:32.758922,14,EyesOpen
-21145.33140007632,-10172.144791143512,7801.988160847207,-1645.982461688812,27091.36481182156,10365.219159748454,14905.95369409963,10999.718129601257,0.0,0.0,0.0,2019-03-17T21:26:32.759819,14,EyesOpen
-21177.741429536516,-10210.07570148417,7880.576894352066,-1434.5573108860626,27076.7914744367,10823.251107126607,14900.969255086096,11155.085105310096,0.0,0.0,0.0,2019-03-17T21:26:32.766962,14,EyesOpen
-21315.383471892295,-10364.772124859348,7779.211733247249,-1449.421220948842,26922.698548161814,11172.050079351673,14765.562387175845,11124.887898550976,0.0,0.0,0.0,2019-03-17T21:26:32.767603,14,EyesOpen
-21302.799439763956,-10337.212423945955,7688.083671102962,-1660.4440403513959,26911.343861978516,10763.527245942027,14751.279622468905,10964.64824255088,0.0,0.0,0.0,2019-03-17T21:26:32.774950,14,EyesOpen
-21143.90088843118,-10163.360555572577,7786.006663561662,-1653.8949792259907,27073.572823235136,10378.29493025481,14897.683548651166,10988.31873992905,0.0,0.0,0.0,2019-03-17T21:26:32.775640,14,EyesOpen
-21147.678333244126,-10172.927102199448,7883.460269386801,-1446.00140404718,27097.824465969145,10736.280469451007,14926.249078065048,11146.591442417079,0.0,0.0,0.0,2019-03-17T21:26:32.782164,14,EyesOpen
-21305.369890376318,-10342.509787381863,7797.607218933967,-1421.3250781685208,26938.18830706934,11170.97719561782,14785.991881607997,11142.72459062631,0.0,0.0,0.0,2019-03-17T21:26:32.782848,14,EyesOpen
-21316.45635562615,-10362.916930069558,7695.280932817571,-1616.4558072633515,26900.682079873335,10878.839895586956,14744.39528517667,10991.93972253081,0.0,0.0,0.0,2019-03-17T21:26:32.789662,14,EyesOpen
-21185.788057540423,-10215.21660270889,7748.209863687738,-1687.5790581201386,27033.071462282118,10382.407651234586,14860.646708088721,10953.695887767779,0.0,1.032,0.164,2019-03-17T21:26:32.790297,14,EyesOpen
-21145.778434965425,-10181.264302881278,7868.775173279664,-1489.4308435238415,27097.824465969145,10614.731683103048,14925.690284453665,11105.419529130404,0.0,0.0,0.0,2019-03-17T21:26:32.797857,14,EyesOpen
-21284.940395944166,-10332.943240754992,7820.02601862264,-1409.1210256959232,26962.372894569984,11118.58470661458,14806.935466162618,11151.642936663979,0.0,0.0,0.0,2019-03-17T21:26:32.798558,14,EyesOpen
-21342.540841405495,-10391.974197861457,7693.112813605406,-1598.6191151880164,26880.565509863558,10944.956355685754,14726.29037216787,10999.98635053472,0.0,0.0,0.0,2019-03-17T21:26:32.805620,14,EyesOpen
-21213.571275898372,-10250.331193248176,7723.7123517647215,-1708.4555874413954,27002.427220633894,10405.675817212561,14833.377579853248,10928.997210144666,0.0,0.0,0.0,2019-03-17T21:26:32.806380,14,EyesOpen
-21139.028208139924,-10169.507285297786,7853.866559727974,-1535.9448237353354,27099.232625869827,10505.051673060856,14926.293781553959,11066.818066456088,0.0,0.0,0.0,2019-03-17T21:26:32.811901,14,EyesOpen
-21252.239793806053,-10291.681920490495,7846.468132313268,-1401.1638046698338,26992.68186005138,11054.23403432775,14838.69729503361,11156.202692532861,0.0,0.0,0.0,2019-03-17T21:26:32.819219,14,EyesOpen
-21341.266791971542,-10394.097613584712,7714.548136538046,-1557.246036201243,26880.23023369673,11017.286600743128,14734.337000171781,11024.685028157834,0.0,0.0,0.0,2019-03-17T21:26:32.820009,14,EyesOpen
-21234.805433130914,-10276.683899960983,7707.6861509902665,-1716.9716020788674,26973.191138886352,10459.364707394208,14812.881030187731,10916.882564649888,0.0,0.0,0.0,2019-03-17T21:26:32.827144,14,EyesOpen
-21130.176917335622,-10154.710430468373,7842.556577033589,-1580.3577399680305,27101.110172404075,10423.713674987994,14932.619325234811,11036.576156208057,0.0,0.0,0.0,2019-03-17T21:26:32.827865,14,EyesOpen
-21237.57704944337,-10266.245635300354,7857.733411518742,-1417.0782467220124,27020.263912709226,10968.202169919274,14867.396934914224,11152.648765164467,0.0,1.024,0.168,2019-03-17T21:26:32.835235,14,EyesOpen
-21339.56805939294,-10393.2035438065,7743.091314207472,-1521.6844107728496,26895.161198992875,11088.342796366549,14754.185349248095,11061.207778597805,0.0,0.0,0.0,2019-03-17T21:26:32.836121,14,EyesOpen
-21253.290325795453,-10297.582781026696,7707.775557968088,-1708.634401397038,26957.969600912285,10553.666717251148,14807.158983607173,10929.511300267137,0.0,0.0,0.0,2019-03-17T21:26:32.841875,14,EyesOpen
-21135.206059838067,-10158.24200609231,7825.636306480922,-1622.4907782662845,27092.996489166795,10366.403802204586,14930.652371722743,11006.8483360825,0.0,0.0,0.0,2019-03-17T21:26:32.842613,14,EyesOpen
-21204.183543227144,-10237.456588441919,7873.647853570921,-1428.254118949666,27046.6836746554,10875.218912985196,14896.655368406222,11148.334878484593,0.0,0.0,0.0,2019-03-17T21:26:32.850017,14,EyesOpen
-21329.979161021613,-10378.965482588468,7763.96784352873,-1481.67478819785,26906.448829942805,11128.10654975254,14768.35635523276,11089.393328355949,0.0,0.0,0.0,2019-03-17T21:26:32.850657,14,EyesOpen
-21284.471009310604,-10324.47192960643,7691.592894982446,-1686.886154042024,26926.565399952582,10647.164064307699,14780.471000727535,10936.775617215111,0.0,0.0,0.0,2019-03-17T21:26:32.858123,14,EyesOpen
-21148.75121697798,-10176.145753401011,7792.846297364986,-1653.2691303812421,27070.443579011393,10330.775121542827,14911.496926724545,10975.846466522988,0.0,0.0,0.0,2019-03-17T21:26:32.858837,14,EyesOpen
-21168.174882909643,-10198.989236234336,7877.335891406047,-1436.256043464666,27067.82842491012,10770.925673356733,14920.817604162408,11136.935488812387,0.0,0.0,0.0,2019-03-17T21:26:32.865010,14,EyesOpen
-21322.044291739978,-10369.845970850703,7775.1884192452935,-1451.2987674830877,26908.460486943783,11129.20178523085,14778.526398959924,11106.782985542177,0.0,0.0,0.0,2019-03-17T21:26:32.865883,14,EyesOpen
-21311.293102656975,-10354.490322409907,7680.819354154987,-1664.4002991199852,26895.80939958208,10742.449550920672,14758.990974305985,10948.085599909497,-0.002,1.026,0.166,2019-03-17T21:26:32.871556,14,EyesOpen
-21163.413961340662,-10181.48782032583,7768.169971486327,-1677.6325318375268,27047.868317111534,10328.607002330662,14895.068394549895,10955.282861624106,0.0,0.0,0.0,2019-03-17T21:26:32.879242,14,EyesOpen
-21158.51892930495,-10179.029128435746,7874.810144282597,-1466.3414915015092,27082.51352101726,10665.671308716692,14931.85936592333,11116.72951182479,0.0,0.0,0.0,2019-03-17T21:26:32.879911,14,EyesOpen
-21297.63618679478,-10338.397066402087,7809.610105706466,-1420.5874706014956,26941.42931001536,11127.212479974329,14803.135669605217,11134.58855564458,0.0,0.0,0.0,2019-03-17T21:26:32.887434,14,EyesOpen
-21334.31539944594,-10374.539837186318,7686.1390693353505,-1630.693868481382,26876.07280922804,10843.680601558757,14734.895793783164,10965.74347802919,0.0,0.0,0.0,2019-03-17T21:26:32.888371,14,EyesOpen
-21192.426525643652,-10225.07372201368,7741.10200895095,-1703.6723141279597,27010.853828293544,10344.633203105117,14853.918833007674,10925.06330312053,0.0,0.0,0.0,2019-03-17T21:26:32.894261,14,EyesOpen
-21134.60256273777,-10161.460657293876,7877.0900222170385,-1497.253954083199,27090.828369954634,10565.244920878999,14936.061493880929,11086.308787621116,0.0,0.0,0.0,2019-03-17T21:26:32.894950,14,EyesOpen
-21270.814093448414,-10306.679941020006,7841.461341555279,-1397.7216360237167,26964.116330637495,11082.218418385795,14826.292076860915,11142.881052837498,0.0,0.0,0.0,2019-03-17T21:26:32.902118,14,EyesOpen
-21337.22112622513,-10378.38433723263,7718.951430195741,-1579.4189667009077,26875.625774338936,10936.507396281648,14739.656715352145,10993.951379531787,0.0,0.0,0.0,2019-03-17T21:26:32.903018,14,EyesOpen
-21209.77147934097,-10231.891004072548,7742.711334551733,-1701.1912704934205,26991.653679806434,10387.34738675921,14838.831405500343,10916.234364060685,0.0,0.0,0.0,2019-03-17T21:26:32.910152,14,EyesOpen
-21126.690045200594,-10132.984534857815,7873.022004726173,-1533.6425940564388,27096.148085134995,10462.248082428943,14935.837976436374,11051.23890057074,0.004,1.028,0.168,2019-03-17T21:26:32.910782,14,EyesOpen
-21241.354494256317,-10274.60518772664,7867.545827334622,-1395.1511854113562,26992.61480481801,11010.804594851088,14848.88969050523,11146.680849394901,0.0,0.0,0.0,2019-03-17T21:26:32.917317,14,EyesOpen
-21339.36689369284,-10378.361985488174,7735.022334459107,-1550.182884953366,26873.100027215485,11003.584981392025,14735.298125183359,11021.04169381162,0.0,0.0,0.0,2019-03-17T21:26:32.918110,14,EyesOpen
-21229.01633131699,-10253.21456828291,7726.886299477375,-1713.7305991328478,26964.38455157096,10452.726239290982,14810.556448764379,10917.039026861075,0.0,0.0,0.0,2019-03-17T21:26:32.924937,14,EyesOpen
-21120.319798030832,-10144.115703596557,7851.676088771354,-1586.4374144598742,27088.950823420386,10386.766241403371,14927.232554821081,11030.876461371954,0.0,0.0,0.0,2019-03-17T21:26:32.925637,14,EyesOpen
-21209.369147940775,-10245.190292023455,7875.815972783086,-1412.2279181752108,27012.932540527887,10926.78438744359,14865.94407152463,11156.739134399788,0.0,0.0,0.0,2019-03-17T21:26:32.931882,14,EyesOpen
-21335.924725046723,-10378.741965143916,7749.528616610601,-1517.482282815252,26868.786140535613,11062.079496631563,14733.308819926837,11062.303014076117,0.0,0.0,0.0,2019-03-17T21:26:32.932599,14,EyesOpen
-21265.49437826805,-10291.883086190592,7706.725025978688,-1706.6674478849707,26919.926931849353,10533.527795496917,14777.297053014881,10929.176024100307,0.0,0.0,0.0,2019-03-17T21:26:32.939940,14,EyesOpen
-21131.205097580565,-10144.339221041111,7832.475940284246,-1623.2283858333094,27067.336686532104,10327.087083707702,14913.57563895889,11013.397397207904,0.0,0.0,0.0,2019-03-17T21:26:32.946894,14,EyesOpen
-21192.605339599293,-10214.434291652953,7890.523420634678,-1420.609822345951,27028.712872113334,10818.71370300218,14884.98775780055,11159.39899198997,0.0,0.0,0.0,2019-03-17T21:26:32.947702,14,EyesOpen
-21326.671102842225,-10358.37952594513,7789.582942674511,-1460.060651309568,26883.739457576212,11093.394290613449,14752.01723003593,11109.308732665628,0.002,1.028,0.156,2019-03-17T21:26:32.954396,14,EyesOpen
-21287.73436400108,-10320.560374326751,7718.794967984554,-1664.3332438866191,26898.826885083545,10631.450787955617,14758.610994650246,10959.373230859426,0.0,0.0,0.0,2019-03-17T21:26:32.955084,14,EyesOpen
-21141.643362241193,-10157.884378181026,7826.463321025768,-1632.4596562933514,27051.176375290917,10299.639141516584,14894.554304427422,11001.729786602235,0.0,0.0,0.0,2019-03-17T21:26:32.962514,14,EyesOpen
-21163.32455436284,-10182.49364882632,7915.512670935711,-1422.5991276024733,27050.885802612996,10715.940381996677,14900.812792874909,11159.86837862353,0.0,0.0,0.0,2019-03-17T21:26:32.963213,14,EyesOpen
-21308.11915494432,-10354.378563687631,7824.9657541472625,-1423.2920316805878,26899.072754272554,11100.233924416772,14763.282509241404,11147.418456961925,0.0,0.0,0.0,2019-03-17T21:26:32.970384,14,EyesOpen
-21304.095840942366,-10342.599194359684,7726.372209354903,-1634.9406999278904,26876.31867841705,10731.31838218193,14734.448758894057,10989.525734129636,0.0,0.0,0.0,2019-03-17T21:26:32.971024,14,EyesOpen
-21146.9407256771,-10168.054421908191,7818.841376166508,-1650.631624535516,27035.619561150022,10307.395196842575,14875.75648734051,11001.662731368868,0.0,0.0,0.0,2019-03-17T21:26:32.976925,14,EyesOpen
-21125.170126577632,-10145.657973963973,7929.102531564538,-1438.4241626768307,27077.082047114618,10622.130110517754,14920.258810551026,11168.54085547219,0.0,0.0,0.0,2019-03-17T21:26:32.977690,14,EyesOpen
-21282.481704054084,-10317.878164992115,7856.1911411513265,-1391.5749062985071,26924.37492899596,11088.47690683328,14785.54484671889,11190.110288871561,0.0,0.0,0.0,2019-03-17T21:26:32.985141,14,EyesOpen
-21316.769280048524,-10362.492246924907,7734.731761781188,-1599.1332053104884,26858.258468897162,10835.656325299302,14720.43421512058,11029.714170660278,0.0,0.0,0.0,2019-03-17T21:26:32.986090,14,EyesOpen
-21181.09419120481,-10204.666579325984,7783.3468059714805,-1680.7394243168146,26994.894682752452,10328.830519775214,14841.535966579435,10988.810478307067,0.002,1.024,0.158,2019-03-17T21:26:32.993009,14,EyesOpen
-21131.160394091654,-10143.042819862703,7909.812976099608,-1486.6592272113833,27075.517425002745,10519.267382534432,14921.063473351416,11144.892709838476,0.0,0.0,0.0,2019-03-17T21:26:32.993672,14,EyesOpen
-21249.714046682602,-10284.417603542519,7876.307711161103,-1378.5214875366078,26951.129967108962,11048.28847030264,14815.160908122172,11213.60197229409,0.0,0.0,0.0,2019-03-17T21:26:33.000116,14,EyesOpen
-21314.89173351428,-10358.558339900774,7747.226386931705,-1555.1002687335335,26856.537384574105,10930.807701445545,14720.791843031866,11071.601339769524,0.0,0.0,0.0,2019-03-17T21:26:33.006450,14,EyesOpen
-21194.773458811458,-10221.586849878651,7765.018375518129,-1680.3594446610743,26971.62651677448,10385.715709413971,14819.854774457786,10991.380928919427,0.0,0.0,0.0,2019-03-17T21:26:33.007252,14,EyesOpen
-21111.31204501534,-10124.423816731432,7890.456365401312,-1521.3938380949305,27075.338611047104,10427.960506434501,14918.649484950243,11121.021046760208,0.0,0.0,0.0,2019-03-17T21:26:33.014593,14,EyesOpen
-21229.753938884012,-10267.139705078567,7884.533153120656,-1374.7440427236609,26973.213490630806,10975.667652567347,14833.534042064435,11218.497004329802,0.0,0.0,0.0,2019-03-17T21:26:33.015433,14,EyesOpen
-21332.32609418942,-10379.367813988663,7753.216654445727,-1517.1693583928775,26845.786195491102,10998.421728422849,14715.047444706852,11096.456479603825,0.0,0.0,0.0,2019-03-17T21:26:33.022692,14,EyesOpen
-21229.552773183917,-10259.093077074656,7736.00581121514,-1691.6694273554597,26924.37492899596,10444.031410697868,14776.470038470035,10974.661824066858,0.0,0.0,0.0,2019-03-17T21:26:33.023348,14,EyesOpen
-21106.79699263537,-10127.2401365328,7872.530266348156,-1569.5171439072067,27064.185090563908,10351.159912486066,14903.47265046509,11082.19606664134,0.0,0.0,0.0,2019-03-17T21:26:33.029740,14,EyesOpen
-21183.351717394795,-10216.468300398386,7917.926659336885,-1377.448603802753,27008.886874781478,10892.854439360433,14858.076257476361,11221.55919332018,0.002,1.02,0.158,2019-03-17T21:26:33.030504,14,EyesOpen
-21305.705166543146,-10348.209482217966,7797.87543986743,-1470.8565438814812,26867.31092540156,11059.732563463756,14729.553726858347,11133.20274748835,0.0,0.0,0.0,2019-03-17T21:26:33.037278,14,EyesOpen
-21239.544002955437,-10271.498295247353,7745.617061330922,-1667.8648195105577,26911.433268956338,10543.295507823887,14768.043430810385,10991.55974287507,0.0,0.0,0.0,2019-03-17T21:26:33.037731,14,EyesOpen
-21116.721167173528,-10141.969936128848,7853.0842486720385,-1607.4927577367732,27048.36005548955,10301.56139153974,14895.56013292791,11053.049391871618,0.0,0.0,0.0,2019-03-17T21:26:33.045415,14,EyesOpen
-21169.828911999335,-10208.466375883387,7919.692447148854,-1402.5049093371522,27021.135630742985,10783.576760718437,14879.377469942268,11205.287123356715,0.0,0.0,0.0,2019-03-17T21:26:33.046105,14,EyesOpen
-21314.64586432527,-10359.675927123539,7813.834585408519,-1442.8721598234367,26875.178739449828,11075.579950282568,14744.216471221027,11157.990832089286,0.0,0.0,0.0,2019-03-17T21:26:33.052580,14,EyesOpen
-21282.906387198735,-10312.04435968928,7731.28959313507,-1652.151543158477,26886.198149466294,10628.500357687517,14746.317535199827,11003.98731279222,0.0,0.0,0.0,2019-03-17T21:26:33.053218,14,EyesOpen
-21132.07681561432,-10155.29157582421,7832.565347262067,-1632.8843394380021,27039.285247240692,10277.063879616724,14884.875999078275,11037.671391686368,0.0,0.0,0.0,2019-03-17T21:26:33.059130,14,EyesOpen
-21141.41984479664,-10170.781334731739,7924.229851273281,-1419.2463659341772,27049.54469794568,10677.383622811274,14903.047967320439,11199.520373287247,0.0,0.0,0.0,2019-03-17T21:26:33.066895,14,EyesOpen
-21283.956919188135,-10330.216327931445,7840.12023688796,-1404.5612698270404,26900.682079873335,11081.436107329859,14773.519608201936,11193.619512751045,0.0,0.0,0.0,2019-03-17T21:26:33.067577,14,EyesOpen
-21293.54581755946,-10335.603098345173,7729.635564045378,-1624.2342143337983,26862.952335232778,10727.339771668885,14733.19706120456,11026.294353758616,0.0,1.02,0.158,2019-03-17T21:26:33.075105,14,EyesOpen
-21141.598658752282,-10167.339166085621,7809.207774306271,-1655.370194360041,27015.659453351433,10284.819934942716,14869.587405870845,11022.89688860141,0.0,0.0,0.0,2019-03-17T21:26:33.075986,14,EyesOpen
-21122.66673119864,-10140.181796572424,7919.021894815194,-1447.8789505814257,27065.302677786673,10578.566560574362,14919.655313450732,11182.175419589928,0.0,0.0,0.0,2019-03-17T21:26:33.082039,14,EyesOpen
-21270.165892859208,-10298.968589182925,7855.341774862025,-1384.51175505063,26920.50807720519,11064.918168177386,14793.412660767159,11212.707902515878,0.0,0.0,0.0,2019-03-17T21:26:33.082501,14,EyesOpen
-21316.188134692686,-10343.023877504334,7726.953354710741,-1585.2751237481982,26845.562678046546,10837.489168344639,14719.383683131182,11053.027040127165,0.0,0.0,0.0,2019-03-17T21:26:33.089256,14,EyesOpen
-21168.15253116519,-10193.311893142689,7774.696680867277,-1673.0504242241889,26982.511816324215,10322.437920860997,14836.059789187884,11001.707434857779,0.0,0.0,0.0,2019-03-17T21:26:33.089579,14,EyesOpen
-21106.685233913093,-10128.67064817794,7899.285304461158,-1492.5824394920396,27063.894517885987,10478.989539025968,14912.793327902953,11144.713895882833,0.0,0.0,0.0,2019-03-17T21:26:33.097260,14,EyesOpen
-21232.547906940927,-10265.060992844225,7870.786830280642,-1381.9636561827251,26940.08820534804,11013.643266396914,14807.091928373806,11213.043178682707,0.0,0.0,0.0,2019-03-17T21:26:33.097542,14,EyesOpen
-21308.588541577883,-10341.258089692366,7743.001907229652,-1555.2343792002655,26837.27018085363,10916.346122782961,14707.537258569868,11067.868598445488,0.0,0.0,0.0,2019-03-17T21:26:33.105636,14,EyesOpen
-21188.112638963776,-10210.522736373274,7758.044631248073,-1692.0494070112,26948.537164752146,10362.246377735899,14803.448594027592,10978.752193302178,0.0,0.0,0.0,2019-03-17T21:26:33.106508,14,EyesOpen
-21103.019547822423,-10129.229441789323,7888.154135722415,-1538.4035156254192,27063.40277950797,10380.887732611625,14913.57563895889,11104.413700629915,0.004,1.02,0.16,2019-03-17T21:26:33.112331,14,EyesOpen
-21216.14172651073,-10253.438085727465,7887.528286877667,-1385.964618440225,26970.10659815152,10926.046779876564,14837.780873510943,11208.237553624816,0.0,0.0,0.0,2019-03-17T21:26:33.112968,14,EyesOpen
-21325.844088297377,-10367.0967062827,7752.210825945238,-1517.124654903967,26842.567544289537,10975.913521756354,14719.875421509198,11092.14259292395,0.0,0.0,0.0,2019-03-17T21:26:33.119406,14,EyesOpen
-21232.793776129936,-10263.585777710174,7725.38873259887,-1696.3632936910742,26919.122269048963,10428.63105876816,14782.281492028415,10970.683213553813,0.0,0.0,0.0,2019-03-17T21:26:33.127318,14,EyesOpen
-21098.728012887004,-10122.72508415283,7863.142533676927,-1579.1954492563546,27064.87799464202,10315.173603913023,14918.671836694699,11076.719889249789,0.0,0.0,0.0,2019-03-17T21:26:33.127978,14,EyesOpen
-21180.021307470957,-10215.440120153442,7895.329045692569,-1397.453415090253,27003.701270067846,10840.48430210165,14871.599062871823,11204.661274511967,0.0,0.0,0.0,2019-03-17T21:26:33.135242,14,EyesOpen
-21314.46705036963,-10356.993717788902,7769.980462787207,-1485.5192882441627,26859.84544275349,11031.815234639078,14740.528433385902,11122.742131083267,0.0,0.0,0.0,2019-03-17T21:26:33.136003,14,EyesOpen
-21261.001677632532,-10284.574065753706,7713.519956293101,-1691.4682616553619,26896.36819319346,10526.17407157112,14769.898625600175,10976.449963623281,0.0,0.0,0.0,2019-03-17T21:26:33.142648,14,EyesOpen
-21130.556896991362,-10131.62107844604,7827.670315226354,-1635.1642173724435,27042.39213971998,10268.279644045788,14900.969255086096,11037.313763775082,0.0,0.0,0.0,2019-03-17T21:26:33.143284,14,EyesOpen
-21172.064086444865,-10195.122384443568,7899.598228883533,-1428.3882294163977,27019.325139442106,10738.180367729708,14889.256940991514,11185.796402191687,0.0,0.0,0.0,2019-03-17T21:26:33.151242,14,EyesOpen
-21321.329035917406,-10362.894578325102,7791.080509553017,-1465.4250699788417,26863.958163733267,11049.00372612521,14748.552709645357,11136.689619623377,0.004,1.024,0.156,2019-03-17T21:26:33.151938,14,EyesOpen
-21289.16487564622,-10328.674057564027,7714.034046415573,-1673.340996902108,26868.51791960215,10621.504261673006,14745.468168910524,10982.261417181662,0.0,0.0,0.0,2019-03-17T21:26:33.157758,14,EyesOpen
-21133.596734237282,-10162.690003238917,7811.510003985168,-1663.238008408309,27023.750784844255,10245.994954823847,14882.126734510271,11004.836679081522,0.0,0.0,0.0,2019-03-17T21:26:33.158421,14,EyesOpen
-21137.217716839044,-10169.44023006442,7902.2133829848035,-1454.5621221735623,27037.00536930625,10623.96295356309,14900.321054496892,11158.996660589775,0.0,0.0,0.0,2019-03-17T21:26:33.165155,14,EyesOpen
-21274.34566907235,-10316.917039980537,7815.913297642863,-1430.1540172283671,26887.65101285589,11048.7578569362,14765.517683686934,11153.475779709313,0.0,0.0,0.0,2019-03-17T21:26:33.165709,14,EyesOpen
-21290.327166357896,-10319.442787103986,7705.294514333548,-1640.7521534862703,26847.708445514258,10718.108501208842,14718.221392419506,10985.033033494119,0.0,0.0,0.0,2019-03-17T21:26:33.173135,14,EyesOpen
-21152.930993191123,-10174.759945244783,7770.494552909679,-1691.110633744077,26989.664374549913,10243.782132122771,14842.184167168638,10959.641451792892,0.0,0.0,0.0,2019-03-17T21:26:33.173785,14,EyesOpen
-21117.861106140746,-10140.740590183806,7892.646836357932,-1478.6796544408387,27052.472776469323,10515.780510399403,14908.412385989714,11124.485567150781,0.0,0.0,0.0,2019-03-17T21:26:33.179404,14,EyesOpen
-21258.095950853345,-10297.716891493428,7838.332097331536,-1406.3047058945544,26912.684966645837,11012.7491966187,14787.6906141866,11162.438829235893,0.0,0.0,0.0,2019-03-17T21:26:33.180284,14,EyesOpen
-21301.12305892981,-10333.591441344195,7720.605459285433,-1598.7979291436588,26839.617114021436,10812.164641876774,14716.857936007731,11009.776414606145,0.0,0.0,0.0,2019-03-17T21:26:33.186954,14,EyesOpen
-21167.90666197618,-10191.702567541906,7759.6316051044,-1700.5430699042167,26968.609031273012,10284.238789586878,14832.192937397116,10952.466541822738,-0.002,1.028,0.146,2019-03-17T21:26:33.194829,14,EyesOpen
-21093.52005642892,-10119.282915506712,7888.355301422514,-1519.5162915606847,27063.916869630444,10422.529032531862,14926.249078065048,11101.642084317456,0.0,0.0,0.0,2019-03-17T21:26:33.195573,14,EyesOpen
-21231.00563657351,-10264.3233852772,7855.207664395293,-1409.8586332629484,26938.344769280528,10957.02629769162,14817.26197210097,11170.574864217624,0.0,0.0,0.0,2019-03-17T21:26:33.203275,14,EyesOpen
-21321.17257370622,-10361.553473657785,7719.711389507222,-1579.2401527452653,26825.155535358852,10890.753375381635,14708.81130800382,11030.049446827108,0.0,0.0,0.0,2019-03-17T21:26:33.204032,14,EyesOpen
-21208.229208973553,-10233.232108739867,7731.535462324079,-1722.8054073817025,26930.454603487804,10340.788703058804,14799.291169558905,10936.775617215111,0.0,0.0,0.0,2019-03-17T21:26:33.210882,14,EyesOpen
-21107.02051007992,-10125.29553476519,7864.9977284667175,-1575.9320945658797,27051.086968313095,10334.105531466668,14912.413348247213,11058.480865774258,0.0,0.0,0.0,2019-03-17T21:26:33.211515,14,EyesOpen
-21204.63057811625,-10238.59652740914,7872.418507625879,-1411.0209239746243,26962.41759805889,10883.712575878213,14839.41255085618,11167.289157782694,0.0,0.0,0.0,2019-03-17T21:26:33.217462,14,EyesOpen
-21309.30379740045,-10352.366906686653,7746.801703787054,-1531.5862335665506,26833.895067440877,10966.056402451564,14720.322456398304,11059.7102117193,0.0,0.0,0.0,2019-03-17T21:26:33.218399,14,EyesOpen
-21221.215572502086,-10248.967736836403,7713.251735359638,-1715.8093113671914,26898.782181594634,10418.885698185648,14773.54195994639,10926.560869999037,0.0,0.0,0.0,2019-03-17T21:26:33.225648,14,EyesOpen
-21091.307233727843,-10101.379168198011,7844.814103223575,-1604.3188100241198,27043.39796822047,10275.163981338022,14907.7194819116,11023.299220001605,0.0,0.0,0.0,2019-03-17T21:26:33.226511,14,EyesOpen
-21171.81821725586,-10201.40322463551,7880.8451152855305,-1417.480578122208,26985.6187088035,10789.61173172137,14863.619490101277,11154.816884376633,0.0,1.03,0.156,2019-03-17T21:26:33.232795,14,EyesOpen
-21310.041404967476,-10356.90431081108,7753.082543978995,-1503.7359599752378,26832.7327767292,10998.622894122946,14722.088244210274,11072.204836869818,0.0,0.0,0.0,2019-03-17T21:26:33.233488,14,EyesOpen
-21251.837462405856,-10287.949179166459,7693.00105488313,-1707.6509246410042,26864.896937000387,10503.397643971162,14743.031828764895,10925.711503709736,0.0,0.0,0.0,2019-03-17T21:26:33.240197,14,EyesOpen
-21108.719242658528,-10129.967049356348,7815.2203935647485,-1649.022298934734,27020.82270632061,10230.12521626058,14884.384260700257,10987.245856195195,0.0,0.0,0.0,2019-03-17T21:26:33.240880,14,EyesOpen
-21147.90185068868,-10174.558779544686,7885.315464176591,-1446.6272528919285,27004.05889797913,10683.865628703312,14876.829371074364,11139.260070235738,0.0,0.0,0.0,2019-03-17T21:26:33.247146,14,EyesOpen
-21289.902483213245,-10335.938374512003,7779.748175114176,-1475.7292241727382,26846.479099569216,11019.119443788462,14732.235936192983,11097.886991248964,0.0,0.0,0.0,2019-03-17T21:26:33.255020,14,EyesOpen
-21271.998735904544,-10309.876240477115,7696.242057829149,-1685.8132703081692,26842.12050940043,10607.19914522161,14721.14947094315,10936.775617215111,0.0,0.0,0.0,2019-03-17T21:26:33.255759,14,EyesOpen
-21117.54818171837,-10139.220671560844,7796.8472596224865,-1677.6101800930717,27003.880084023487,10220.44691091143,14867.03930700294,10959.6861552818,0.0,0.0,0.0,2019-03-17T21:26:33.262945,14,EyesOpen
-21120.476260242016,-10136.516110481753,7902.995694040739,-1460.865314109959,27036.44657569487,10585.42854612214,14903.226781276082,11125.49139565127,0.0,0.0,0.0,2019-03-17T21:26:33.263899,14,EyesOpen
-21274.703296983636,-10313.050188189769,7822.305896557081,-1432.702116096272,26882.93479477582,11023.165109534873,14767.708154643555,11128.620639875013,0.0,0.0,0.0,2019-03-17T21:26:33.269738,14,EyesOpen
-21289.611910535325,-10332.295040165787,7710.904802191831,-1637.4217435624296,26836.487869797693,10721.88594602179,14719.674255809101,10968.291576897094,-0.002,1.026,0.154,2019-03-17T21:26:33.270380,14,EyesOpen
-21146.56074602136,-10165.595730018107,7776.753041357165,-1691.7364825888258,26984.43406634737,10245.436161212465,14851.683658562144,10945.917480697331,0.0,0.0,0.0,2019-03-17T21:26:33.277592,14,EyesOpen
-21102.17018153312,-10120.62402017403,7900.738167850754,-1487.0392068671235,27050.751692146267,10489.986597297979,14921.354046029335,11107.7217588093,0.0,0.0,0.0,2019-03-17T21:26:33.278311,14,EyesOpen
-21240.63923843375,-10275.856885416137,7853.307766116592,-1402.549612826063,26914.875437602455,10998.667597611857,14801.660454471166,11154.950994843364,0.0,0.0,0.0,2019-03-17T21:26:33.284858,14,EyesOpen
-21300.966596718623,-10344.163816471555,7727.2886308775705,-1591.2206877733097,26832.64336975138,10825.933316461244,14720.747139542955,11003.719091858757,0.0,0.0,0.0,2019-03-17T21:26:33.285463,14,EyesOpen
-21165.67148753065,-10192.551933831208,7762.090296994484,-1695.3127617016748,26960.09301663554,10290.98901641238,14832.79643449741,10940.217785861229,0.0,0.0,0.0,2019-03-17T21:26:33.292290,14,EyesOpen
-21096.78341111939,-10114.47729044882,7886.120126976983,-1522.0420386841345,27052.74099740279,10396.444546752518,14922.315171040915,11075.781115982667,0.0,0.0,0.0,2019-03-17T21:26:33.292923,14,EyesOpen
-21203.06595600438,-10232.941536061948,7881.538019363645,-1380.8907724488704,26951.19702234233,10952.198320889274,14837.333838621837,11169.412573505948,0.0,0.0,0.0,2019-03-17T21:26:33.300419,14,EyesOpen
-21295.289253626976,-10326.125958696122,7747.315793909525,-1545.0419837286454,26833.35862557395,10909.953523868744,14719.987180231474,11030.675295671857,0.0,0.0,0.0,2019-03-17T21:26:33.301057,14,EyesOpen
-21194.90756927819,-10219.821062066683,7743.203072929749,-1702.62178213856,26927.213600541785,10352.635127620117,14797.54773349139,10925.44328277627,0.0,0.0,0.0,2019-03-17T21:26:33.307495,14,EyesOpen
-21087.865065081725,-10100.529801908708,7872.597321581522,-1563.21395197081,27053.478604969812,10319.42043535953,14915.296723281948,11041.739409177233,0.004,1.02,0.154,2019-03-17T21:26:33.314547,14,EyesOpen
-21182.211778427576,-10206.87940202706,7887.640045599944,-1397.3640081124317,26970.643040018447,10865.697069847236,14848.554414338401,11157.96848034483,0.0,0.0,0.0,2019-03-17T21:26:33.315505,14,EyesOpen
-21296.943282716667,-10332.406798888063,7761.777372572109,-1512.25197461271,26837.046663409077,10971.6890420543,14723.071720966307,11054.591662239036,0.0,0.0,0.0,2019-03-17T21:26:33.321980,14,EyesOpen
-21211.11258400829,-10238.261251242311,7727.176872155294,-1698.0396745252222,26898.93864380582,10435.336582104754,14773.96664309104,10922.87283216391,0.0,0.0,0.0,2019-03-17T21:26:33.322724,14,EyesOpen
-21080.93602430058,-10100.842726331082,7854.425353339358,-1601.860118134036,27041.878049597508,10262.043507342758,14906.490135966556,11011.229277995739,0.0,0.0,0.0,2019-03-17T21:26:33.329899,14,EyesOpen
-21152.819234468847,-10180.817267992172,7903.1521562519265,-1408.6516390623617,26994.96173798582,10772.51264721306,14873.029574516962,11149.519520940725,0.0,0.0,0.0,2019-03-17T21:26:33.330753,14,EyesOpen
-21290.41657333572,-10325.500109851375,7788.532410685112,-1474.6116369499728,26849.02719843712,11013.442100696815,14740.193157219072,11082.978377697274,0.0,0.0,0.0,2019-03-17T21:26:33.338072,14,EyesOpen
-21243.455558235117,-10274.247559815354,7720.828976729987,-1681.8570115395798,26875.044628983098,10535.450045520074,14757.292241727382,10932.841710190978,0.0,0.0,0.0,2019-03-17T21:26:33.338909,14,EyesOpen
-21104.830039123302,-10121.182813785412,7823.8481669244975,-1647.4800285673177,27021.984997032287,10222.704437101416,14890.173362514182,10974.393603133394,0.0,0.0,0.0,2019-03-17T21:26:33.344688,14,EyesOpen
-21133.395568537184,-10153.212863589868,7904.672074874888,-1436.8148370760487,27017.693462096868,10662.139733092754,14892.743813126543,11133.15804399944,0.0,0.0,0.0,2019-03-17T21:26:33.345576,14,EyesOpen
-21270.568224259405,-10310.412682344042,7818.55080348859,-1440.0558400220682,26871.066018470054,11033.89394687342,14763.550730174868,11113.91319202342,0.0,0.0,0.0,2019-03-17T21:26:33.352807,14,EyesOpen
-21258.811206675913,-10293.581818769195,7728.629735544889,-1648.1729326454322,26855.017465951143,10648.48281723056,14743.948250287563,10955.327565113017,-0.002,1.022,0.156,2019-03-17T21:26:33.353590,14,EyesOpen
-21104.830039123302,-10125.139072554002,7816.02505636514,-1656.5101333272617,27007.366956158516,10236.204890752422,14881.18796124315,10960.267300637639,0.0,0.0,0.0,2019-03-17T21:26:33.360967,14,EyesOpen
-21103.466582711528,-10122.769787641739,7924.788644884664,-1441.933386556314,27041.72158738632,10576.75606927348,14922.158708829727,11121.088101993573,0.0,0.0,0.0,2019-03-17T21:26:33.361713,14,EyesOpen
-21244.081407079866,-10284.954045409448,7860.281510386648,-1396.5593453120405,26903.02901304114,11035.860900385487,14799.805259681376,11140.243546991773,0.0,0.0,0.0,2019-03-17T21:26:33.367864,14,EyesOpen
-21272.892805682757,-10313.698388778972,7744.946508997263,-1607.3586472700415,26850.323599615527,10754.497141182082,14742.942421787075,10978.349861901983,0.0,0.0,0.0,2019-03-17T21:26:33.374272,14,EyesOpen
-21135.56368774935,-10160.544235771207,7796.690797411299,-1690.2612674547754,26983.83056924708,10247.64898391354,14859.126789465761,10931.880585179399,0.0,0.0,0.0,2019-03-17T21:26:33.374990,14,EyesOpen
-21079.103181255243,-10108.509374679254,7919.871261104497,-1497.0080848941905,27057.859546883054,10462.203378940032,14932.462863023624,11085.928807965376,0.0,0.0,0.0,2019-03-17T21:26:33.383660,14,EyesOpen
-21223.182526014152,-10269.777210924294,7872.016176225684,-1410.350371640965,26923.81613538458,10977.724013057234,14815.116204633261,11136.287288223182,0.0,0.0,0.0,2019-03-17T21:26:33.384372,14,EyesOpen
-21286.192093633665,-10332.76442679935,7746.0193927311175,-1592.762958140726,26838.387768076394,10828.883746729345,14729.687837325078,10986.485896883714,0.0,0.0,0.0,2019-03-17T21:26:33.391845,14,EyesOpen
-21153.84741471379,-10183.320663371165,7768.818172075531,-1713.7305991328478,26957.611973001003,10284.574065753706,14830.673018774156,10908.053625590042,0.0,0.0,0.0,2019-03-17T21:26:33.392469,14,EyesOpen
-21076.309213198332,-10103.457880432354,7896.826612571074,-1544.2596726727097,27058.060712583152,10366.135581271123,14927.076092609894,11041.940574877332,-0.004,1.022,0.158,2019-03-17T21:26:33.397978,14,EyesOpen
-21198.550903624404,-10229.387608693554,7886.65656884391,-1403.510737837641,26951.95698165381,10915.58616347148,14839.07727468935,11133.359209699538,0.0,0.0,0.0,2019-03-17T21:26:33.398638,14,EyesOpen
-21293.523465815004,-10335.603098345173,7765.241892962682,-1544.2596726727097,26838.32071284303,10915.20618381574,14736.572174617313,11014.447929197304,0.0,0.0,0.0,2019-03-17T21:26:33.404961,14,EyesOpen
-21185.922168007157,-10224.850204569126,7753.417820145824,-1704.1864042504317,26926.341882508026,10360.569996901751,14811.6963877316,10906.220782544708,0.0,0.0,0.0,2019-03-17T21:26:33.405613,14,EyesOpen
-21077.002117276446,-10100.462746675343,7883.862600786996,-1572.7581468532262,27054.30561951466,10300.220286872422,14932.5746217459,11019.074740299553,0.0,0.0,0.0,2019-03-17T21:26:33.413115,14,EyesOpen
-21169.33717362132,-10201.582038591152,7914.797415113141,-1393.5642115550295,26984.836397747567,10846.38516263785,14879.511580409002,11147.574919173112,0.0,0.0,0.0,2019-03-17T21:26:33.413902,14,EyesOpen
-21290.64009078027,-10331.020990731835,7787.370119973436,-1504.026532653157,26848.289590870096,10981.88143752592,14750.296145712871,11052.132970348952,0.0,0.0,0.0,2019-03-17T21:26:33.420047,14,EyesOpen
-21208.653892118204,-10238.864748342605,7746.064096220029,-1698.3525989475966,26903.967786308265,10456.861312015213,14793.636178211711,10916.837861160977,0.0,0.0,0.0,2019-03-17T21:26:33.420706,14,EyesOpen
-21079.281995210888,-10103.860211832549,7867.679937801354,-1616.344048541075,27046.370750233025,10253.169864794001,14924.90797339773,10993.772565576144,0.0,0.0,0.0,2019-03-17T21:26:33.426819,14,EyesOpen
-21149.37706582273,-10173.508247555286,7917.367865725502,-1420.4310083903085,27005.40000264645,10746.182292244708,14896.498906195035,11135.661439378435,0.0,0.0,0.0,2019-03-17T21:26:33.427636,14,EyesOpen
-21287.756715745534,-10317.364074869642,7805.676198682332,-1474.7457474167047,26857.342047374495,11014.827908853043,14762.991936563485,11079.044470673141,-0.006,1.026,0.156,2019-03-17T21:26:33.434762,14,EyesOpen
-21237.621752932282,-10259.60716719713,7738.308040894037,-1677.721938815348,26879.716143574256,10552.347964328286,14776.380631492215,10927.611401988435,0.0,0.0,0.0,2019-03-17T21:26:33.442542,14,EyesOpen
-21087.708602870538,-10104.351950210566,7843.785922978631,-1644.6860605104043,27034.233752993794,10220.916297544993,14911.519278469,10964.245911150683,0.0,0.0,0.0,2019-03-17T21:26:33.443376,14,EyesOpen
-21117.615236951737,-10144.38392453002,7921.972325083295,-1439.2958807105877,27028.087023268585,10636.211709524598,14911.049891835439,11111.67801757789,0.0,0.0,0.0,2019-03-17T21:26:33.449760,14,EyesOpen
-21259.235889820564,-10297.56042928224,7829.346696060503,-1439.7205638552384,26876.832768539523,11015.6996268868,14774.570140191334,11087.24756088824,0.0,0.0,0.0,2019-03-17T21:26:33.450392,14,EyesOpen
-21250.29519203844,-10288.865600689125,7730.14965416785,-1651.1233629135327,26852.69288452779,10641.509072960505,14746.205776477549,10921.084692607486,0.0,0.0,0.0,2019-03-17T21:26:33.457355,14,EyesOpen
-21104.450059467563,-10125.697866165385,7810.884155140419,-1672.178706190432,27003.500104367748,10209.248686939321,14881.053850776418,10917.866041405921,0.0,0.0,0.0,2019-03-17T21:26:33.458016,14,EyesOpen
-21097.945701831068,-10110.163403768945,7912.584592412066,-1466.3638432459645,27039.084081540597,10524.676504692616,14921.197583818148,11074.819990971087,0.0,0.0,0.0,2019-03-17T21:26:33.465262,14,EyesOpen
-21230.692712151136,-10269.598396968651,7853.486580072235,-1406.9082029948477,26904.66069038638,11007.921219816353,14805.147326606195,11106.313598908615,0.0,0.0,0.0,2019-03-17T21:26:33.465961,14,EyesOpen
-21269.674154481192,-10313.47487133442,7741.213767673227,-1607.7833304146923,26846.32263735803,10758.900434839778,14745.982259032997,10951.147788899874,0.0,0.0,0.0,2019-03-17T21:26:33.473328,14,EyesOpen
-21129.66282721315,-10153.369325801055,7795.863782866452,-1686.372063919552,26984.165845413907,10253.952175849936,14867.553397125412,10909.506488979638,-0.004,1.028,0.158,2019-03-17T21:26:33.474195,14,EyesOpen
-21075.45984690903,-10094.584237883597,7916.786720369664,-1497.0527883831012,27054.842061381587,10442.086808930257,14938.698999726654,11058.257348329706,0.0,0.0,0.0,2019-03-17T21:26:33.479933,14,EyesOpen
-21204.876447305258,-10231.108693016613,7885.2484089432255,-1388.5350690525854,26932.220391299772,10978.662786324358,14832.036475185929,11127.927735796899,0.0,0.0,0.0,2019-03-17T21:26:33.480570,14,EyesOpen
-21275.8208842064,-10303.416586329531,7756.278843436104,-1566.2090857278213,26839.103023898962,10858.499808132627,14739.187328718583,10981.166181703351,0.0,0.0,0.0,2019-03-17T21:26:33.488079,14,EyesOpen
-21154.294449602898,-10172.211846376878,7774.026128533617,-1692.9211250449569,26953.588658999048,10307.2834381203,14835.880975232241,10898.129451051886,0.0,0.0,0.0,2019-03-17T21:26:33.488840,14,EyesOpen
-21070.69892534005,-10087.766955824729,7903.6215428854875,-1534.9836987237572,27059.26770678374,10354.982060787925,14939.593069504866,11030.630592182946,0.0,0.0,0.0,2019-03-17T21:26:33.495066,14,EyesOpen
-21190.191351198122,-10217.608239365607,7893.675016602876,-1399.6885895357836,26956.49438577824,10898.844706874455,14851.527196350957,11121.356322927037,0.0,0.0,0.0,2019-03-17T21:26:33.502851,14,EyesOpen
-21291.578864047395,-10326.304772651765,7764.280767951103,-1544.5278936061734,26835.0350064081,10915.742625682667,14737.019209506418,10999.025225523143,0.0,0.0,0.0,2019-03-17T21:26:33.503673,14,EyesOpen
-21190.325461664852,-10220.670428355985,7745.326488653003,-1719.8996806025125,26915.478934702747,10353.596252631694,14802.912152160663,10876.604721141424,0.0,0.0,0.0,2019-03-17T21:26:33.509401,14,EyesOpen
-21072.64352710766,-10110.364569469044,7873.133763448449,-1601.9271733674018,27045.20845952135,10252.119332804601,14922.09165359636,10975.377079889427,0.0,0.0,0.0,2019-03-17T21:26:33.510073,14,EyesOpen
-21157.066065915355,-10194.340073387631,7909.835327844064,-1421.258022935155,26982.064781435107,10788.583551476426,14871.867283805286,11103.027892473685,0.002,1.028,0.158,2019-03-17T21:26:33.517509,14,EyesOpen
-21289.611910535325,-10329.165795942044,7791.013454319651,-1516.8787857149584,26841.18173613331,10951.326602855517,14742.651849109156,11014.067949541564,0.0,0.0,0.0,2019-03-17T21:26:33.518327,14,EyesOpen
-21213.124241009267,-10258.713097418917,7752.277881178604,-1702.0629885271776,26899.385678694925,10442.891471730647,14787.556503719868,10880.091593276453,0.0,0.0,0.0,2019-03-17T21:26:33.525533,14,EyesOpen
-21083.238253979478,-10115.170194526934,7871.077402958561,-1630.0680196366334,27044.984942076797,10210.030997995258,14920.482327995578,10949.359649343449,0.0,0.0,0.0,2019-03-17T21:26:33.526173,14,EyesOpen
-21137.50828951696,-10177.77743074625,7929.504862964734,-1433.0597440075571,27011.94906377185,10690.392338084263,14898.33174924037,11091.852020246031,0.0,0.0,0.0,2019-03-17T21:26:33.532623,14,EyesOpen
-21271.775218459992,-10326.684752307505,7824.07168436905,-1474.4998782276964,26864.65106781138,10985.41301314986,14764.556558675356,11039.370124264971,0.0,0.0,0.0,2019-03-17T21:26:33.533355,14,EyesOpen
-21233.24081101904,-10279.902551162548,7748.500436365657,-1677.4760696263397,26875.84929178349,10539.316897310842,14767.104657543261,10884.718404378702,0.0,0.0,0.0,2019-03-17T21:26:33.539932,14,EyesOpen
-21090.346108716265,-10118.500604450775,7849.105638158994,-1659.7734880177366,27023.10258425505,10189.176820418455,14900.365757985803,10916.614343716425,0.0,0.0,0.0,2019-03-17T21:26:33.540461,14,EyesOpen
-21106.46171646854,-10137.946622126892,7940.256052047736,-1448.9741860597358,27031.395081447972,10594.816278793369,14915.609647704321,11075.401136326926,0.0,0.0,0.0,2019-03-17T21:26:33.547898,14,EyesOpen
-21252.53036648397,-10297.985112426892,7853.88891147243,-1437.1054097539677,26880.297288930095,10999.98635053472,14782.840285639799,11066.505142033713,0.0,0.0,0.0,2019-03-17T21:26:33.548218,14,EyesOpen
-21248.216479804098,-10293.671225747017,7755.742401569177,-1644.4625430658512,26855.30803862906,10657.714087690603,14753.693610870077,10909.037102346076,0.004,1.02,0.16,2019-03-17T21:26:33.555091,14,EyesOpen
-21095.79993436336,-10136.493758737297,7830.844262939008,-1680.76177606127,27003.05306947864,10208.689893327939,14887.401746201724,10899.984645841676,0.0,0.0,0.0,2019-03-17T21:26:33.561371,14,EyesOpen
-21091.486047683484,-10123.552098697675,7934.042267089161,-1486.5027650001962,27039.55346817416,10493.205248499544,14931.211165334127,11052.512950004691,0.0,0.0,0.0,2019-03-17T21:26:33.561704,14,EyesOpen
-21236.750034898527,-10276.192161582967,7872.060879714594,-1420.1180839679341,26901.643204884913,10982.797859048589,14812.03166389843,11088.186334155362,0.0,0.0,0.0,2019-03-17T21:26:33.569446,14,EyesOpen
-21270.724686470592,-10314.435996345997,7758.402259159358,-1605.9728391138124,26842.299323356074,10763.728411642125,14751.77136084692,10939.12255038292,0.0,0.0,0.0,2019-03-17T21:26:33.569783,14,EyesOpen
-21130.75806269146,-10168.25558760829,7804.983294604218,-1694.0834157566328,26974.688705764856,10245.056181556723,14867.911025036698,10887.490020691159,0.0,0.0,0.0,2019-03-17T21:26:33.577642,14,EyesOpen
-21067.61438460522,-10101.66974087593,7931.874147876996,-1507.4239978103635,27061.771102162733,10404.669988712072,14949.807816720942,11034.206871295795,0.0,0.0,0.0,2019-03-17T21:26:33.578181,14,EyesOpen
-21189.789019797925,-10232.941536061948,7908.918906321395,-1388.7585864971384,26945.00558912821,10942.765884729133,14848.442655616123,11106.648875075445,0.0,0.0,0.0,2019-03-17T21:26:33.585015,14,EyesOpen
-21273.87628243879,-10328.517595352841,7775.478991923213,-1570.2323997297765,26835.54909653057,10841.66894455778,14742.942421787075,10954.925233712822,0.0,0.0,0.0,2019-03-17T21:26:33.585656,14,EyesOpen
-21156.149644392688,-10195.122384443568,7786.073718795028,-1711.0930932871215,26943.306856549607,10282.562408752729,14834.092835675818,10860.131485477863,0.0,0.0,0.0,2019-03-17T21:26:33.592440,14,EyesOpen
-21064.663954337117,-10093.71251984984,7920.742979138253,-1558.4306786573743,27057.16664280494,10302.544868295774,14942.05176139495,10989.637492851913,0.006,1.024,0.152,2019-03-17T21:26:33.593138,14,EyesOpen
-21174.634537057227,-10217.563535876696,7922.531118694677,-1407.936383239792,26961.52352828068,10855.258805186606,14863.217158701082,11095.852982503531,0.0,0.0,0.0,2019-03-17T21:26:33.600328,14,EyesOpen
-21285.87916921129,-10338.553528613273,7793.516849698645,-1541.0633732156007,26835.347930830474,10909.707654679734,14746.16107298864,10983.066079982053,0.0,0.0,0.0,2019-03-17T21:26:33.600960,14,EyesOpen
-21191.443048887617,-10232.338038961654,7770.405145931858,-1713.663543899482,26911.142696278417,10360.659403879572,14810.60115225329,10864.311261691006,0.0,0.0,0.0,2019-03-17T21:26:33.608549,14,EyesOpen
-21072.285899196377,-10100.753319353262,7899.37471143898,-1602.3295047675974,27046.236639766295,10239.468245442897,14935.748569458554,10965.676422795823,0.0,0.0,0.0,2019-03-17T21:26:33.609196,14,EyesOpen
-21144.437330298108,-10190.696739041417,7944.011145116227,-1408.5622320845405,26990.357278628027,10775.016042592055,14895.202505016627,11103.29611340715,0.0,0.0,0.0,2019-03-17T21:26:33.614579,14,EyesOpen
-21272.199901604643,-10331.33391515421,7824.004629135684,-1495.2422970822213,26849.60834379296,10966.615196062947,14766.322346487326,11023.23216476824,0.0,0.0,0.0,2019-03-17T21:26:33.621867,14,EyesOpen
-21217.706348622603,-10258.713097418917,7765.733631340699,-1702.0406367827222,26885.438190154815,10449.64169855615,14792.78681192241,10874.637767629358,0.0,0.0,0.0,2019-03-17T21:26:33.622593,14,EyesOpen
-21076.1751027316,-10105.268371733233,7886.164830465893,-1634.8736446945245,27035.19487800537,10193.937741987436,14928.283086810481,10938.07201839352,0.0,0.0,0.0,2019-03-17T21:26:33.629851,14,EyesOpen
-21123.002007365467,-10166.713317240872,7953.24241557627,-1429.6622788503503,27011.658491093935,10661.424477270184,14913.709749425621,11088.186334155362,0.0,0.0,0.0,2019-03-17T21:26:33.630652,14,EyesOpen
-21267.34957305784,-10322.415569116542,7849.21739688127,-1463.0557850665791,26860.87362299843,10977.45579212377,14775.106582058263,11046.075647601563,0.006,1.03,0.156,2019-03-17T21:26:33.638216,14,EyesOpen
-21235.006598831013,-10292.911266435536,7768.080564508506,-1669.5188486002505,26866.03687596761,10548.972850915534,14768.5351691884,10892.787384127067,0.0,0.0,0.0,2019-03-17T21:26:33.638950,14,EyesOpen
-21076.756248087437,-10119.461729462353,7872.664376814888,-1654.856104237569,27025.136593000483,10177.330395857143,14908.926476112185,10921.598782729958,0.0,0.0,0.0,2019-03-17T21:26:33.644399,14,EyesOpen
-21086.970995303513,-10131.86694763505,7967.681642494398,-1446.6049011474731,27037.00536930625,10556.907720197169,14925.355008286835,11077.926883450376,0.0,0.0,0.0,2019-03-17T21:26:33.644864,14,EyesOpen
-21232.43614821865,-10285.758708209838,7892.378615424468,-1419.5592903565516,26889.617966367958,10986.41884165035,14795.6925387016,11081.167886396395,0.0,0.0,0.0,2019-03-17T21:26:33.652828,14,EyesOpen
-21256.218404319097,-10303.99773168537,7778.429422191313,-1636.505322039762,26841.271143111127,10651.902634132222,14744.529395643402,10912.881602392388,0.0,0.0,0.0,2019-03-17T21:26:33.653483,14,EyesOpen
-21103.779507133902,-10138.840691905105,7850.469094570768,-1682.2593429397755,26985.730467525776,10181.152544159002,14870.973214027073,10896.318959751006,0.0,0.0,0.0,2019-03-17T21:26:33.660864,14,EyesOpen
-21070.87773929569,-10106.76593861174,7965.222950604314,-1480.221924808255,27038.458232695848,10447.831207255269,14924.818566419908,11055.396325039426,0.0,0.0,0.0,2019-03-17T21:26:33.661551,14,EyesOpen
-21216.074671277365,-10259.651870686039,7912.606944156521,-1401.9684674702248,26904.817152597567,10953.472370323227,14807.337797562814,11103.474927362791,0.0,0.0,0.0,2019-03-17T21:26:33.667852,14,EyesOpen
-21277.743134229557,-10325.701275551472,7787.727747884721,-1594.8416703750695,26830.27408483912,10752.910167325756,14733.48763388248,10954.612309290447,0.0,0.0,0.0,2019-03-17T21:26:33.668795,14,EyesOpen
-21128.567591734838,-10159.538407270718,7832.78886470662,-1685.343883674608,26968.117292894996,10235.132007018568,14852.577728340357,10911.182869813785,0.002,1.03,0.16,2019-03-17T21:26:33.674451,14,EyesOpen
-21062.585242102774,-10092.751394838262,7959.925587168406,-1507.7592739771933,27049.54469794568,10365.86736033766,14933.915726413219,11056.37980179546,0.0,0.0,0.0,2019-03-17T21:26:33.675134,14,EyesOpen
-21192.739450066027,-10235.511986674308,7932.075313577094,-1389.2950283640657,26929.13585056494,10905.796099400057,14829.331914106837,11134.610907389035,0.0,0.0,0.0,2019-03-17T21:26:33.682472,14,EyesOpen
-21275.15033187274,-10324.248412161876,7805.206812048771,-1551.635748342961,26827.97185516022,10845.222871926175,14730.716017570021,11003.60733313648,0.0,0.0,0.0,2019-03-17T21:26:33.690353,14,EyesOpen
-21163.86099622977,-10203.616047336585,7808.157242316872,-1700.7442356043143,26925.693681918823,10286.205743098944,14815.429129055636,10905.952561611242,0.0,0.0,0.0,2019-03-17T21:26:33.691417,14,EyesOpen
-21057.10906471122,-10082.469592388821,7946.738057939775,-1547.5006756187292,27048.650628167466,10285.781059954294,14933.826319435397,11039.168958564873,0.0,0.0,0.0,2019-03-17T21:26:33.696804,14,EyesOpen
-21163.503368318485,-10192.909561742492,7955.790514444175,-1388.4233103303088,26957.746083467733,10830.448368841217,14857.405705142703,11151.151198285961,0.0,0.0,0.0,2019-03-17T21:26:33.697545,14,EyesOpen
-21284.49336105506,-10322.19205167199,7822.060027368073,-1520.8350444835478,26820.484020767693,10903.471517976704,14728.033808235385,11037.738446919733,0.0,0.0,0.0,2019-03-17T21:26:33.704994,14,EyesOpen
-21194.86286578928,-10218.92699228847,7797.584867189511,-1701.5712501491607,26897.105800760484,10356.85960732217,14789.344643276292,10914.334465781983,0.0,0.0,0.0,2019-03-17T21:26:33.705638,14,EyesOpen
-21061.26648917991,-10080.726156321307,7936.322145023602,-1590.3489697395528,27048.807090378654,10215.68598934245,14928.394845532757,11017.823042610054,0.0,0.0,0.0,2019-03-17T21:26:33.712938,14,EyesOpen
-21137.061254627857,-10173.664709766474,7971.548494285166,-1405.6341535608954,26990.692554794856,10732.324210682418,14882.484362421557,11152.022916319718,0.002,1.024,0.162,2019-03-17T21:26:33.713638,14,EyesOpen
-21278.07841039639,-10326.237717418398,7842.422466566857,-1490.1684510908665,26839.103023898962,10943.481140551703,14743.478863654002,11072.853037459021,0.0,0.0,0.0,2019-03-17T21:26:33.720044,14,EyesOpen
-21220.47796493506,-10252.387553738065,7782.743308871188,-1693.1222907450547,26872.809454537568,10446.624213054683,14768.244596510482,10925.979724643199,0.0,0.0,0.0,2019-03-17T21:26:33.720755,14,EyesOpen
-21076.756248087437,-10093.511354149741,7903.330970207569,-1631.923214426424,27028.757575602245,10171.049555665202,14909.462917979112,10988.899885284887,0.0,0.0,0.0,2019-03-17T21:26:33.727779,14,EyesOpen
-21113.36840550523,-10137.968973871348,7978.924569955418,-1418.4640548782415,27014.050127750652,10631.853119355812,14905.506659210523,11147.798436617666,0.0,0.0,0.0,2019-03-17T21:26:33.728440,14,EyesOpen
-21253.424436262183,-10293.000673413359,7879.347548407024,-1437.99947953218,26861.611230565457,10977.902827012877,14769.138666288694,11114.047302490151,0.0,0.0,0.0,2019-03-17T21:26:33.735553,14,EyesOpen
-21231.720892396082,-10264.099867832645,7794.232105521215,-1645.7812959887144,26857.16323341885,10562.227435377532,14757.739276616488,10955.081695924007,0.0,0.0,0.0,2019-03-17T21:26:33.736191,14,EyesOpen
-21080.868969067214,-10102.697921120873,7888.489411889245,-1645.5577785441612,27011.792601560664,10166.82507596315,14895.180153272171,10971.130248442918,0.0,0.0,0.0,2019-03-17T21:26:33.742619,14,EyesOpen
-21083.238253979478,-10108.844650846082,7982.232628134803,-1438.4688661657412,27028.712872113334,10525.79409191538,14916.347255271347,11125.267878206716,0.0,0.0,0.0,2019-03-17T21:26:33.749478,14,EyesOpen
-21231.609133673803,-10268.927844634993,7897.854792816019,-1411.8702902639259,26874.195262693796,10962.614233805447,14778.906378615664,11124.82084331761,0.0,0.0,0.0,2019-03-17T21:26:33.750331,14,EyesOpen
-21244.97547685808,-10283.769402953316,7787.97361707373,-1616.4111037744408,26831.436375550795,10665.291329060952,14735.6781048391,10969.02918446412,0.002,1.02,0.166,2019-03-17T21:26:33.757118,14,EyesOpen
-21107.46754496903,-10131.844595890594,7847.183388135838,-1676.6267033370382,26972.699400508332,10185.958169216892,14861.093742977828,10943.8834719519,0.0,0.0,0.0,2019-03-17T21:26:33.757765,14,EyesOpen
-21076.622137620707,-10097.154688495957,7961.981947658294,-1476.9138666288695,27034.278456482705,10430.150977391122,14924.550345486445,11101.19504942835,0.0,0.0,0.0,2019-03-17T21:26:33.765277,14,EyesOpen
-21215.270008476975,-10248.431294969476,7913.992752312751,-1391.641961531873,26901.017356040164,10941.514187039636,14808.880067930231,11149.58657617409,0.0,0.0,0.0,2019-03-17T21:26:33.765947,14,EyesOpen
-21269.45063703664,-10304.17654564101,7793.628608420922,-1580.983588812779,26821.31103531254,10765.628309920825,14730.11252046973,10999.673426112346,0.0,0.0,0.0,2019-03-17T21:26:33.773294,14,EyesOpen
-21132.70266445907,-10155.895072924504,7829.749027460698,-1691.758834333281,26948.268943818683,10226.772454592283,14841.848891001808,10934.004000902654,0.0,0.0,0.0,2019-03-17T21:26:33.773937,14,EyesOpen
-21059.768922301402,-10076.076993474602,7956.282252822191,-1519.6504020274165,27039.598171663067,10328.696409308483,14929.71359845562,11071.847208958532,0.0,0.0,0.0,2019-03-17T21:26:33.779794,14,EyesOpen
-21184.58106333984,-10215.529527131263,7930.086008320572,-1396.5816970564958,26923.458507473293,10874.034270529064,14831.075350174351,11154.906291354453,0.0,0.0,0.0,2019-03-17T21:26:33.780589,14,EyesOpen
-21270.948203915144,-10306.925810209013,7800.0212073351395,-1553.1333152214665,26815.477230009703,10841.959517235699,14730.671314081112,11026.853147369999,0.0,0.0,0.0,2019-03-17T21:26:33.787965,14,EyesOpen
-21163.838644485313,-10176.659843523485,7807.263172538659,-1700.632476882038,26919.27873126015,10290.765498967827,14820.279457602437,10930.293611323073,0.0,0.0,0.0,2019-03-17T21:26:33.788747,14,EyesOpen
-21055.27622166589,-10075.89817951896,7941.440694503867,-1558.341271679553,27045.990770577286,10263.764591665817,14937.022618892506,11049.89779590342,0.004,1.018,0.166,2019-03-17T21:26:33.795794,14,EyesOpen
-21151.500481545983,-10175.609311534085,7963.457162792345,-1381.2707521046107,26972.989973186253,10816.52323204556,14877.723440852576,11171.245416551283,0.0,0.0,0.0,2019-03-17T21:26:33.796482,14,EyesOpen
-21278.68190749668,-10311.396159100075,7826.26215532567,-1503.445387297319,26827.658930737845,10916.390826271872,14743.389456676181,11058.458514029804,0.0,0.0,0.0,2019-03-17T21:26:33.803051,14,EyesOpen
-21194.728755322547,-10218.2117364659,7786.699567639776,-1693.9716570343564,26886.533425633126,10376.305624998287,14789.612864209756,10922.939887397277,0.0,0.0,0.0,2019-03-17T21:26:33.809362,14,EyesOpen
-21072.710582341027,-10088.638673858486,7909.298885977136,-1606.6880949363822,27023.974302288807,10196.68700655544,14915.699054682143,11005.440176181815,0.0,0.0,0.0,2019-03-17T21:26:33.810004,14,EyesOpen
-21139.47524302903,-10161.639471249518,7959.299738323658,-1408.8528047624595,26980.164883156405,10710.17363192721,14884.004281044517,11149.273651751715,0.0,0.0,0.0,2019-03-17T21:26:33.817471,14,EyesOpen
-21277.720782485103,-10314.883031235104,7836.275736841648,-1479.059634096579,26829.603532505458,10949.136131898897,14745.579927632802,11077.368089838994,0.0,0.0,0.0,2019-03-17T21:26:33.818289,14,EyesOpen
-21224.590685914838,-10249.481826958874,7768.371137186425,-1680.6500173389934,26861.52182358764,10469.624158099194,14764.221282508528,10927.767864199623,0.0,0.0,0.0,2019-03-17T21:26:33.825494,14,EyesOpen
-21081.80774233434,-10094.718348350329,7874.2737024156695,-1641.0427261641892,27008.35043291455,10161.01362240477,14894.733118383065,10970.705565298267,0.0,0.0,0.0,2019-03-17T21:26:33.826138,14,EyesOpen
-21104.584169934293,-10133.76684591375,7959.232683090292,-1425.6166131039397,27003.567159601113,10605.52276438746,14900.075185307884,11126.430168918392,0.0,0.0,0.0,2019-03-17T21:26:33.832663,14,EyesOpen
-21257.045418863945,-10300.689673505984,7858.0686876855725,-1439.966433044247,26846.25558212466,10965.542312329091,14758.566291161334,11092.187296412862,0.006,1.02,0.162,2019-03-17T21:26:33.833303,14,EyesOpen
-21251.233965305564,-10281.623635485606,7765.532465640601,-1652.2856536252086,26828.485945282693,10571.861037237768,14736.147491472662,10931.59001250148,0.0,0.0,0.0,2019-03-17T21:26:33.840240,14,EyesOpen
-21108.965111847534,-10109.515203179742,7853.643042283421,-1665.339072387108,26981.14835991244,10156.140942113512,14871.956690783107,10939.413123060838,0.0,0.0,0.0,2019-03-17T21:26:33.840962,14,EyesOpen
-21097.521018686417,-10105.76011011125,7957.869226678518,-1453.66805239535,27015.413584162427,10499.26257124693,14913.374473258791,11101.887953506464,0.0,0.0,0.0,2019-03-17T21:26:33.848190,14,EyesOpen
-21248.39529375974,-10265.731545177883,7876.352414650013,-1419.9169182678365,26861.901803243378,10952.801817989566,14781.610939694756,11110.225154188294,0.0,0.0,0.0,2019-03-17T21:26:33.848885,14,EyesOpen
-21265.807302690424,-10294.677054247506,7767.588826130489,-1621.7531706992593,26815.6783957098,10681.339881579863,14734.448758894057,10957.138056413896,0.0,0.0,0.0,2019-03-17T21:26:33.855279,14,EyesOpen
-21124.790146921892,-10144.272165807744,7821.83650992352,-1696.5421076467167,26955.779129955667,10182.471297081864,14855.595213841823,10919.229497817696,0.0,0.0,0.0,2019-03-17T21:26:33.855915,14,EyesOpen
-21073.35878293023,-10088.325749436111,7948.705011451842,-1500.405550051397,27031.50684017025,10401.585447977239,14929.244211822059,11075.445839815837,0.0,0.0,0.0,2019-03-17T21:26:33.861961,14,EyesOpen
-21203.580046126848,-10241.1669780215,7902.258086473715,-1407.4893483506858,26899.966824050764,10921.867003663421,14817.418434312158,11127.950087541352,0.0,0.0,0.0,2019-03-17T21:26:33.869628,14,EyesOpen
-21274.323317327897,-10312.826670745215,7778.563532658045,-1589.119623794511,26815.0301951206,10778.592321704904,14736.01338100593,10981.434402636814,0.0,0.0,0.0,2019-03-17T21:26:33.870365,14,EyesOpen
-21157.021362426443,-10177.553913301697,7799.775338146132,-1712.1212735320657,26929.627588942956,10229.78994009375,14833.89166997572,10901.146936553352,0.008,1.028,0.156,2019-03-17T21:26:33.877637,14,EyesOpen
-21074.699887597548,-10083.989511011781,7933.729342666787,-1539.0517162146232,27035.954837316855,10310.837365488693,14933.580450246389,11040.532414976647,0.0,0.0,0.0,2019-03-17T21:26:33.878604,14,EyesOpen
-21189.23022618654,-10218.032922510258,7923.648705917443,-1395.6205720449177,26931.99687385522,10863.8642268019,14848.710876549589,11134.029762033197,0.0,0.0,0.0,2019-03-17T21:26:33.884910,14,EyesOpen
-21286.72853550059,-10325.47775810692,7789.3370734855025,-1548.0594692301117,26813.577331731005,10855.124694719874,14735.25342169445,11003.428519180838,0.0,0.0,0.0,2019-03-17T21:26:33.885552,14,EyesOpen
-21179.216644670563,-10200.263285668289,7778.094146024484,-1714.0882270441327,26901.576149651548,10296.17462112601,14808.50008827449,10889.00993931412,0.0,0.0,0.0,2019-03-17T21:26:33.892294,14,EyesOpen
-21069.0225445059,-10079.653272587451,7909.2541824882255,-1586.3256557375976,27028.712872113334,10230.862823827603,14924.95267688664,10994.51017314317,0.0,0.0,0.0,2019-03-17T21:26:33.892921,14,EyesOpen
