eeg1,eeg2,eeg3,eeg4,eeg5,eeg6,eeg7,eeg8,accx,accy,accz,iso_utc,session_id,command_name
0.0,0.0,0.0,0.0,0.0,0.0,0.0,0.0,0.002,1.02,0.182,2019-03-17T21:28:11.141732,16,EyesOpen
-16744.16115810408,701.2189270518932,7252.3587646912065,3601.961267228278,23623.15638341384,12107.381177828453,10195.68117805495,10474.452134901541,0.0,0.0,0.0,2019-03-17T21:28:11.150959,16,EyesOpen
-16780.102763188217,674.1956680054269,7320.106902135241,3827.915051926977,23586.43246727377,12572.38686947666,10184.929988971948,10652.036744598956,0.0,0.0,0.0,2019-03-17T21:28:11.156961,16,EyesOpen
-16913.408567119666,527.0988377450511,7229.358819646695,3834.777037474756,23429.97025608662,12949.863129837888,10051.98181295178,10658.183474324165,0.0,0.0,0.0,2019-03-17T21:28:11.157804,16,EyesOpen
-16895.214247133048,527.9035005454422,7147.149103540076,3602.609467817482,23443.649523693268,12528.599802088715,10042.527025047186,10477.581379125284,0.0,0.0,0.0,2019-03-17T21:28:11.163716,16,EyesOpen
-16743.93764065953,679.1801070189604,7238.43362789555,3571.7864122136134,23608.873618706897,12098.73105272425,10181.10784067009,10453.888530002658,0.0,0.0,0.0,2019-03-17T21:28:11.164464,16,EyesOpen
-16735.667495211066,702.2694590412926,7332.378009841205,3800.3106475246727,23615.601493787944,12464.405592013072,10207.102919471612,10630.400255966219,0.0,0.0,0.0,2019-03-17T21:28:11.171779,16,EyesOpen
-16883.323119082823,570.908256877453,7255.890340315144,3866.628273323569,23454.02073312053,12947.918528070275,10069.594987582563,10676.847180944345,0.0,0.0,0.0,2019-03-17T21:28:11.172785,16,EyesOpen
-16905.563104815854,535.2125209823276,7147.84200761819,3649.7045933848135,23423.242381005573,12646.527605834915,10021.806957937117,10502.771795126415,0.006,1.014,0.18,2019-03-17T21:28:11.179421,16,EyesOpen
-16766.60230953721,659.0411852647287,7203.453147822995,3556.2966533060853,23580.442199759746,12121.999218702224,10148.474293765343,10430.352143091219,0.0,0.0,0.0,2019-03-17T21:28:11.180430,16,EyesOpen
-16732.60530622069,696.1003775716279,7312.149681109153,3758.624644115525,23625.726834026198,12353.049201136733,10203.817213036682,10588.04370022341,0.0,0.0,0.0,2019-03-17T21:28:11.186442,16,EyesOpen
-16856.076342591805,582.0617773606513,7272.162410278608,3884.6884828434568,23477.84769270989,12908.93708574022,10088.772784325218,10686.234913615575,0.0,0.0,0.0,2019-03-17T21:28:11.187149,16,EyesOpen
-16915.330817142825,520.7732940641993,7155.195731543986,3695.369207307006,23408.49022966507,12752.13959838624,10011.45810025431,10539.026324632923,0.0,0.0,0.0,2019-03-17T21:28:11.195515,16,EyesOpen
-16800.71107157601,626.2511761487933,7177.994510888399,3539.2199205422307,23542.33247546345,12169.094344269555,10113.04677880368,10421.322038331276,0.0,0.0,0.0,2019-03-17T21:28:11.196172,16,EyesOpen
-16719.797756647797,709.645534711544,7309.109843863231,3716.3127918616287,23636.29920915356,12262.681098303927,10213.696684085928,10564.507313311973,0.0,0.0,0.0,2019-03-17T21:28:11.203493,16,EyesOpen
-16832.674066147098,605.26288810526,7295.072948345298,3883.257971198317,23507.866085513364,12848.140340821785,10123.708560908863,10699.73536726658,0.0,0.0,0.0,2019-03-17T21:28:11.204171,16,EyesOpen
-16923.377445146732,515.2747649281937,7171.3560427851735,3730.4837978462933,23402.745831340057,12834.416369726227,10018.945934646837,10579.259464652476,0.0,0.0,0.0,2019-03-17T21:28:11.209611,16,EyesOpen
-16825.722673621498,608.9509259403856,7168.293853794797,3539.4881414756946,23517.253818184596,12246.252566129277,10102.787328098695,10436.007134438412,0.0,0.0,0.0,2019-03-17T21:28:11.215890,16,EyesOpen
-16721.54119271531,712.7300754463763,7296.749329179446,3665.5072767147158,23637.43914812078,12184.762917132726,10221.631553367562,10538.42282753263,0.018000000000000002,1.018,0.17,2019-03-17T21:28:11.216413,16,EyesOpen
-16807.215429212505,637.002365231796,7318.966963168021,3870.3833663920605,23537.593905638925,12761.214406635096,10156.118590369057,10697.075509676399,0.0,0.0,0.0,2019-03-17T21:28:11.223713,16,EyesOpen
-16912.425090363635,526.0259540111964,7201.083862910732,3776.9754263133323,23408.065546520418,12902.432728103726,10037.386123822465,10618.285610471441,0.0,0.0,0.0,2019-03-17T21:28:11.224605,16,EyesOpen
-16844.632249430688,592.8129664436539,7170.059641606766,3565.9749586552334,23495.907902229777,12347.371858045086,10092.505525649254,10451.251024156933,0.0,0.0,0.0,2019-03-17T21:28:11.231653,16,EyesOpen
-16732.851175409698,701.5318514742675,7283.047709828343,3633.3654681879843,23633.371130629916,12133.957401985814,10210.50038462882,10501.251876503453,0.0,0.0,0.0,2019-03-17T21:28:11.232329,16,EyesOpen
-16791.300987160324,651.4639438943797,7324.510195792937,3849.104505670608,23561.599679183924,12661.324460664327,10164.746363728806,10670.991023897055,0.0,0.0,0.0,2019-03-17T21:28:11.239690,16,EyesOpen
-16913.475622353035,527.9482040343528,7214.986647961932,3806.882060394533,23406.7244418531,12942.308240211993,10028.132501617969,10636.77050313598,0.0,0.0,0.0,2019-03-17T21:28:11.240328,16,EyesOpen
-16863.96650838453,564.9626928523413,7156.112153066654,3579.386005328418,23454.02073312053,12446.546548193282,10047.98085069428,10458.40358238263,0.0,0.0,0.0,2019-03-17T21:28:11.246273,16,EyesOpen
-16732.940582387517,697.3297235166698,7250.81649432379,3590.561877556071,23604.135048882374,12098.01579690168,10177.598616790607,10467.545445864851,0.0,0.0,0.0,2019-03-17T21:28:11.246900,16,EyesOpen
-16764.389486836135,680.029473308262,7326.097169649264,3825.3446013146167,23576.03890610205,12549.923366299077,10175.162276644978,10654.495436489038,0.0,0.0,0.0,2019-03-17T21:28:11.254437,16,EyesOpen
-16906.323064127333,535.3913349379701,7237.852482539712,3850.490313826837,23418.88379083679,12956.725115385667,10043.935184947872,10676.087221632866,0.016,1.03,0.166,2019-03-17T21:28:11.255199,16,EyesOpen
-16897.829401234318,534.6760791154003,7149.674850663526,3622.3907616604283,23419.889619337275,12557.835883836256,10023.148062604436,10499.486088691485,0.0,0.0,0.0,2019-03-17T21:28:11.262341,16,EyesOpen
-16754.46531229798,667.9371795579409,7229.738799302435,3575.3850430709176,23577.983507869663,12102.620256259474,10154.352802557089,10465.109105719222,0.0,0.0,0.0,2019-03-17T21:28:11.262975,16,EyesOpen
-16739.713160957475,697.0391508387507,7332.35565809675,3806.5020807387928,23596.24488308965,12448.289984260797,10189.10976518509,10646.269994529486,0.0,0.0,0.0,2019-03-17T21:28:11.268700,16,EyesOpen
-16874.85180793426,569.4106899989474,7261.679442129069,3881.62629385308,23433.032445077,12942.621164634367,10053.837007741573,10703.333998123884,0.0,0.0,0.0,2019-03-17T21:28:11.275842,16,EyesOpen
-16900.422203591133,530.4068959244366,7154.212254787953,3671.184619806364,23396.934377781676,12670.153399724175,10000.84102163804,10537.729923454515,0.0,0.0,0.0,2019-03-17T21:28:11.276517,16,EyesOpen
-16772.167893906582,652.1121444835835,7206.448281580006,3566.5784557555266,23545.46171968719,12132.772759529682,10118.679418406418,10454.201454425032,0.0,0.0,0.0,2019-03-17T21:28:11.284032,16,EyesOpen
-16718.903686869584,713.1100551021166,7326.566556282825,3774.047347789687,23602.883351192875,12347.43891327845,10188.908599484992,10615.491642414529,0.0,0.0,0.0,2019-03-17T21:28:11.284838,16,EyesOpen
-16839.51369995042,600.9490014253856,7292.323683777295,3909.0965877886524,23461.910898913255,12913.07215846445,10079.876790032005,10720.030751232,0.0,0.0,0.0,2019-03-17T21:28:11.291944,16,EyesOpen
-16902.29975012538,535.4807419157913,7176.787516687813,3727.958050722844,23387.5689968549,12777.57588357638,9995.856582624505,10570.207008148076,0.0,0.0,0.0,2019-03-17T21:28:11.292645,16,EyesOpen
-16796.598350596232,636.1977024314049,7201.553249544293,3572.635778502915,23525.389853166325,12193.345987003564,10097.087633262592,10443.226747897477,0.006,1.034,0.17400000000000002,2019-03-17T21:28:11.298581,16,EyesOpen
-16715.126242056638,708.3714852775914,7324.644306259669,3738.6421845724803,23618.06018567803,12253.80745575517,10191.859029753094,10571.816333748859,0.0,0.0,0.0,2019-03-17T21:28:11.299445,16,EyesOpen
-16818.391301440155,617.2210713888493,7317.670561989613,3917.143215792563,23499.97591972064,12843.222957041617,10103.18965949889,10709.436024360184,0.0,0.0,0.0,2019-03-17T21:28:11.306544,16,EyesOpen
-16912.760366530463,534.0055267817411,7189.125679627143,3775.2990454791843,23389.178322455686,12861.59609098388,9991.36388198899,10592.782270047936,0.0,0.0,0.0,2019-03-17T21:28:11.307201,16,EyesOpen
-16814.70326360503,608.034504417718,7172.451278263483,3574.155697125876,23492.443381839203,12270.772429796747,10064.297624146655,10431.581489036262,0.0,0.0,0.0,2019-03-17T21:28:11.314657,16,EyesOpen
-16705.514991940858,712.350095790636,7293.7988989113455,3687.7472624477464,23611.48877280817,12178.415021707418,10180.079660425146,10520.65319069066,0.0,0.0,0.0,2019-03-17T21:28:11.315393,16,EyesOpen
-16794.854914528718,646.5018566253015,7322.096207391764,3899.7088551174234,23518.237294940627,12757.772237988978,10122.993305086293,10688.291274105462,0.0,0.0,0.0,2019-03-17T21:28:11.321957,16,EyesOpen
-16907.39594786119,535.3466314490595,7207.074130424754,3817.789711688723,23380.125865951286,12929.143062727817,10000.751614660217,10616.542174403927,0.0,0.0,0.0,2019-03-17T21:28:11.322604,16,EyesOpen
-16836.585621426777,594.2434780887936,7164.6058159596705,3594.6298950469372,23452.16553833074,12379.40190784954,10043.443446569854,10444.634907798161,0.0,0.0,0.0,2019-03-17T21:28:11.328405,16,EyesOpen
-16715.439166479013,719.18972959396,7280.72312840499,3652.9008928419225,23597.25071159014,12144.418018390897,10171.027203920747,10497.899114835158,0.0,0.0,0.0,2019-03-17T21:28:11.336293,16,EyesOpen
-16768.502207815913,664.2044382339046,7332.668582519124,3876.083061228164,23535.51519340458,12666.64417584469,10138.483063993819,10682.502172291539,-0.002,1.026,0.166,2019-03-17T21:28:11.337063,16,EyesOpen
-16896.175372144626,530.5410063911685,7222.295668398818,3841.9295957004547,23379.58942408436,12966.068144567984,9999.45521348181,10654.450733000129,0.0,0.0,0.0,2019-03-17T21:28:11.344347,16,EyesOpen
-16861.463113005535,568.0919370760843,7156.134504811109,3615.8193487905683,23424.896410095265,12485.907970179078,10015.682579956363,10473.401602912141,0.0,0.0,0.0,2019-03-17T21:28:11.345233,16,EyesOpen
-16725.363341017168,700.3695607625915,7251.308232701806,3619.9320697703447,23582.967946883196,12117.528869811162,10150.195378088401,10471.54640812235,0.0,0.0,0.0,2019-03-17T21:28:11.351509,16,EyesOpen
-16744.18350984854,685.1703745329827,7327.102998149753,3854.8265522511665,23562.38199023986,12548.738723842946,10150.642412977508,10650.695639931637,0.0,0.0,0.0,2019-03-17T21:28:11.352147,16,EyesOpen
-16881.758496970953,554.9938148252744,7241.495816885927,3889.359997434616,23406.389165686272,12971.454914981714,10017.046036368136,10674.790820454458,0.0,0.0,0.0,2019-03-17T21:28:11.358996,16,EyesOpen
-16887.56995052933,538.6993931173555,7145.204501772464,3654.8678463539895,23396.6214533593,12588.413070251116,9987.295864498123,10488.712547864026,0.0,0.0,0.0,2019-03-17T21:28:11.359968,16,EyesOpen
-16749.570280262265,663.422127177969,7224.754360288902,3590.3830636004286,23560.23622277215,12112.812651731092,10122.233345774812,10441.662125785604,0.0,0.0,0.0,2019-03-17T21:28:11.370032,16,EyesOpen
-16730.97362887545,692.255877525315,7328.421751072616,3809.4525110068935,23586.298356807038,12430.185071251997,10164.411087561975,10615.469290670073,0.0,0.0,0.0,2019-03-17T21:28:11.370908,16,EyesOpen
-16855.80812165834,571.8917336334865,7270.7318986334685,3902.39106445206,23437.033407334497,12948.678487381756,10043.756370992229,10690.124117150799,0.0,0.0,0.0,2019-03-17T21:28:11.376022,16,EyesOpen
-16888.6875377521,526.7412098337662,7156.492132722394,3690.3847682934725,23392.86636029081,12697.646045404203,9985.328910986056,10524.452987248062,0.004,1.016,0.17400000000000002,2019-03-17T21:28:11.376677,16,EyesOpen
-16764.41183858059,651.3074816831925,7198.625171020648,3566.3549383109735,23539.113824261884,12144.35096315753,10102.005017042758,10432.117930903189,0.0,0.0,0.0,2019-03-17T21:28:11.382208,16,EyesOpen
-16711.840535621708,706.0022003653289,7310.205079341541,3755.4283446584163,23598.05537439053,12322.96375309989,10172.189494632423,10582.90279899869,0.0,0.0,0.0,2019-03-17T21:28:11.382846,16,EyesOpen
-16839.021961572405,579.6924924483886,7284.299407517839,3902.2569539853284,23461.620326235334,12894.833134988921,10066.756316036739,10694.840335230869,0.0,0.0,0.0,2019-03-17T21:28:11.388609,16,EyesOpen
-16914.816727020352,512.8384247825652,7166.70687993847,3729.790893768179,23374.470874604092,12790.472840127093,9976.902303326406,10552.526778283927,0.0,0.0,0.0,2019-03-17T21:28:11.389412,16,EyesOpen
-16794.18436219506,626.6535075489888,7183.962426657967,3566.42199354434,23504.93800698972,12206.533516232195,10075.2276271853,10423.691323243538,0.0,0.0,0.0,2019-03-17T21:28:11.396734,16,EyesOpen
-16707.325483241737,715.2111190809154,7305.064178116821,3720.5819750525925,23600.849342447444,12239.390580581497,10172.211846376878,10543.496673523983,0.0,0.0,0.0,2019-03-17T21:28:11.403710,16,EyesOpen
-16802.856839043718,627.1899494159162,7307.813442684823,3904.8944598310545,23485.64845152479,12824.939230077176,10089.510391892241,10689.83354447288,0.0,0.0,0.0,2019-03-17T21:28:11.404481,16,EyesOpen
-16909.58641881781,508.5915933360569,7179.045042877799,3768.682929120413,23363.58557505436,12859.87500666082,9970.889684067928,10578.700671041093,0.0,0.0,0.0,2019-03-17T21:28:11.411033,16,EyesOpen
-16814.144469993647,597.2609635902601,7169.836124162212,3573.015758158655,23474.830207208423,12280.696604334904,10049.478417572787,10428.519300045884,0.0,0.0,0.0,2019-03-17T21:28:11.411683,16,EyesOpen
-16709.515954198356,703.8117294087087,7283.405337739628,3669.8211633945903,23592.735659210168,12152.88932953946,10157.839674692115,10504.962266083034,0.006,1.02,0.17,2019-03-17T21:28:11.419276,16,EyesOpen
-16780.482742843957,647.194760703416,7314.586021254781,3879.5699333631915,23507.754326791088,12716.645028191213,10102.832031587604,10671.192189597154,0.0,0.0,0.0,2019-03-17T21:28:11.419983,16,EyesOpen
-16898.567008801343,531.6362418694785,7205.66597052407,3804.557478971181,23375.588461826857,12913.36273114237,9981.126783028458,10614.15053774721,0.0,0.0,0.0,2019-03-17T21:28:11.427156,16,EyesOpen
-16846.196871542557,572.3611202670479,7147.327917495718,3568.8806854344234,23436.16168930074,12366.169675131998,10009.804071164617,10429.748645990927,0.0,0.0,0.0,2019-03-17T21:28:11.428074,16,EyesOpen
-16727.151480573593,692.1888222919491,7248.983651278455,3611.930145255345,23576.95532762472,12096.786450956637,10133.856252891572,10463.097448718245,0.0,0.0,0.0,2019-03-17T21:28:11.434523,16,EyesOpen
-16770.782085750354,657.8788945530528,7308.931029907589,3844.6341567795466,23531.000141024608,12607.724977460502,10116.33248523861,10651.701468432126,0.0,0.0,0.0,2019-03-17T21:28:11.435161,16,EyesOpen
-16891.54856104238,544.0191082977186,7219.121720686165,3837.392191576027,23389.20067420014,12945.549243158013,9992.257951767202,10645.554738706916,0.0,0.0,0.0,2019-03-17T21:28:11.442275,16,EyesOpen
-16864.257081062446,559.0171288272296,7144.51159769435,3605.448139363306,23418.01207280303,12481.191752099008,9993.152021545413,10465.064402230311,0.0,0.0,0.0,2019-03-17T21:28:11.442919,16,EyesOpen
-16731.890050398117,682.6893308984436,7236.109046472197,3592.886458979423,23569.176920554273,12090.617369486972,10121.115758552047,10454.715544547504,0.0,0.0,0.0,2019-03-17T21:28:11.450005,16,EyesOpen
-16746.686905227532,669.7253191143656,7319.235184101485,3825.277546081251,23553.821272113477,12503.744662254414,10131.285802279212,10634.937660090645,0.0,0.0,0.0,2019-03-17T21:28:11.450638,16,EyesOpen
-16868.883892164697,542.9462245638639,7245.6085378657035,3876.843020539644,23403.908122051733,12957.194502019227,10006.719530429786,10677.607140255826,0.01,1.024,0.166,2019-03-17T21:28:11.456845,16,EyesOpen
-16892.219113376035,533.558491892635,7144.5339494388045,3644.6754508823697,23389.781819555978,12603.366387291717,9971.247311979212,10501.140117781177,0.0,0.0,0.0,2019-03-17T21:28:11.463281,16,EyesOpen
-16757.84042571073,666.6631301239885,7211.410368849083,3564.6338539879152,23543.919449319776,12110.555125541106,10097.914647807438,10446.244233398942,0.0,0.0,0.0,2019-03-17T21:28:11.464178,16,EyesOpen
-16726.12330032865,689.6854269129548,7313.021399142909,3775.120231523542,23571.166225810794,12399.764347048325,10142.86400590706,10614.754034847503,0.0,0.0,0.0,2019-03-17T21:28:11.471617,16,EyesOpen
-16852.410656501135,563.6662916739335,7259.9136543171,3877.714738573401,23423.622360661313,12926.84083304892,10028.780702207172,10697.231971887586,0.0,0.0,0.0,2019-03-17T21:28:11.472471,16,EyesOpen
-16901.070404180336,513.039590482663,7147.104400051165,3672.7492419182354,23370.939298980153,12699.210667516074,9964.810009576084,10535.628859475715,0.0,0.0,0.0,2019-03-17T21:28:11.479375,16,EyesOpen
-16772.74903926242,632.1967401739049,7181.079051623232,3539.711658920248,23515.17510595025,12134.49384385274,10076.61343534153,10428.608707023706,0.0,0.0,0.0,2019-03-17T21:28:11.480030,16,EyesOpen
-16709.337140242715,701.6883136854547,7295.922314634599,3724.985268710288,23588.310013808015,12288.184438727432,10155.649203735496,10571.883388982224,0.0,0.0,0.0,2019-03-17T21:28:11.486559,16,EyesOpen
-16836.406807471136,595.0928443780953,7265.702756131024,3869.332834402661,23449.125701084817,12861.93136715071,10048.316126861111,10684.670291503704,0.0,0.0,0.0,2019-03-17T21:28:11.487193,16,EyesOpen
-16914.235581664514,513.1960526938501,7148.065525062743,3703.438187055372,23361.14923490873,12784.8178487799,9956.226939705246,10551.520949783438,0.0,0.0,0.0,2019-03-17T21:28:11.493922,16,EyesOpen
-16794.676100573077,606.7828067282209,7159.911949624056,3535.9565658517563,23491.303442871984,12199.805641151148,10055.625147297997,10422.506680787406,0.012,1.024,0.168,2019-03-17T21:28:11.494878,16,EyesOpen
-16711.5946664327,701.5094997298122,7275.179895780075,3677.9348466318665,23587.170074840793,12200.0291585957,10151.111799611068,10531.002048373468,0.0,0.0,0.0,2019-03-17T21:28:11.501790,16,EyesOpen
-16811.37285368119,616.4387603329135,7284.746442406946,3871.500953614826,23475.79133222,12792.551552361436,10073.797115540161,10684.603236270337,0.0,0.0,0.0,2019-03-17T21:28:11.502250,16,EyesOpen
-16905.943084471593,512.0561137266295,7163.3764700146285,3752.8578940460557,23355.807167983912,12870.603843999368,9960.183198473835,10587.350796145296,0.0,0.0,0.0,2019-03-17T21:28:11.509836,16,EyesOpen
-16818.5701153958,580.6536174599669,7137.873129591123,3544.4278770003175,23449.30451504046,12288.631473616539,10021.382274792466,10420.025637152869,0.0,0.0,0.0,2019-03-17T21:28:11.510301,16,EyesOpen
-16697.87069533714,691.8088426362089,7257.745535104935,3641.8367793365455,23581.67154570479,12142.853396279026,10142.77459892924,10494.948684567056,0.0,0.0,0.0,2019-03-17T21:28:11.515982,16,EyesOpen
-16771.31852761728,643.9537577573965,7298.448061758049,3865.354223889616,23508.737803547123,12706.631446675236,10100.395691441976,10674.544951265449,0.0,0.0,0.0,2019-03-17T21:28:11.523481,16,EyesOpen
-16895.840095977797,521.3991429089479,7185.7952697033015,3798.589563201614,23364.412589599204,12926.192632459717,9971.292015468123,10619.738473861036,0.0,0.0,0.0,2019-03-17T21:28:11.523955,16,EyesOpen
-16839.916031350618,558.5924456825788,7128.3289347087075,3562.0186998866443,23421.521296682513,12387.560294575727,9999.186992548346,10435.1130646602,0.0,0.0,0.0,2019-03-17T21:28:11.531518,16,EyesOpen
-16705.962026829962,686.7349966448542,7236.578433105759,3598.9437817268113,23576.53064448007,12099.647474246916,10134.81737790315,10469.668861588105,0.0,0.0,0.0,2019-03-17T21:28:11.531997,16,EyesOpen
-16742.194204592015,664.6067696341001,7306.651151973147,3834.464113052382,23537.258629472093,12597.197305822052,10124.75909289826,10659.077544102376,0.006,1.016,0.17200000000000001,2019-03-17T21:28:11.538538,16,EyesOpen
-16883.4348778051,536.2407012272718,7201.70971175548,3821.008362890287,23372.727438536578,12943.626993134856,9984.948931330317,10649.242776542042,0.0,0.0,0.0,2019-03-17T21:28:11.539039,16,EyesOpen
-16867.4310287751,532.4856081587801,7118.002428770355,3582.5599530410714,23385.95967125412,12489.03721440282,9973.661300380385,10460.102314961234,0.0,0.0,0.0,2019-03-17T21:28:11.546183,16,EyesOpen
-16742.283611569837,664.2044382339046,7204.23545887893,3557.637757973404,23543.04773128602,12073.160657067378,10104.217839743835,10440.030448440368,0.0,0.0,0.0,2019-03-17T21:28:11.546684,16,EyesOpen
-16745.234041837935,669.680615625455,7294.827079156289,3786.4749177068375,23546.08756853194,12465.903158891579,10126.48017722132,10619.850232583312,0.0,0.0,0.0,2019-03-17T21:28:11.554219,16,EyesOpen
-16871.119066610227,529.9822127797858,7226.9448312455215,3847.3163661141834,23394.96742426961,12933.792225574522,10002.651512938919,10665.53719824996,0.0,0.0,0.0,2019-03-17T21:28:11.555133,16,EyesOpen
-16877.10933412425,514.5595091056239,7128.686562619992,3626.950517529311,23377.935394994664,12600.997102379455,9967.73808809973,10491.864143832225,0.0,0.0,0.0,2019-03-17T21:28:11.562146,16,EyesOpen
-16742.954163903494,638.3658216435697,7187.47165053745,3540.382211253907,23529.100242745906,12091.220866587266,10089.644502358973,10424.20541336601,0.0,0.0,0.0,2019-03-17T21:28:11.562629,16,EyesOpen
-16712.913419355562,676.1849732619493,7292.189573310563,3750.9132922784443,23564.393647240835,12356.424314549484,10138.52776748273,10587.350796145296,0.0,0.0,0.0,2019-03-17T21:28:11.568882,16,EyesOpen
-16847.649734932154,555.9102363479419,7239.417104651583,3859.140438931041,23411.01597678852,12893.670844277245,10016.397835778933,10670.454582030128,0.0,0.0,0.0,2019-03-17T21:28:11.569608,16,EyesOpen
-16893.40375583217,499.02504670918546,7124.9314695515,3664.1661720473976,23351.113301648296,12699.545943682902,9945.811026789073,10512.874783620213,0.008,1.022,0.17,2019-03-17T21:28:11.575873,16,EyesOpen
-16773.620757296176,610.9625829413633,7156.17920830002,3526.3006122470633,23490.252910882584,12129.822329261582,10052.048868185148,10402.904200900102,0.0,0.0,0.0,2019-03-17T21:28:11.583614,16,EyesOpen
-16706.006730318873,690.937124602452,7280.72312840499,3709.719027247313,23571.456798488714,12261.317641892152,10138.483063993819,10549.33047882682,0.0,0.0,0.0,2019-03-17T21:28:11.583974,16,EyesOpen
-16814.85972581622,603.6088590155672,7267.781468365368,3874.7643083053003,23446.21997430563,12850.30846003395,10043.041115169659,10678.747079223047,0.0,0.0,0.0,2019-03-17T21:28:11.591670,16,EyesOpen
-16899.01404369045,514.6712678279005,7147.931414596012,3718.3020971181513,23345.48066204556,12799.860572798321,9943.240576176713,10548.27994683742,0.0,0.0,0.0,2019-03-17T21:28:11.592009,16,EyesOpen
-16794.586693595254,605.8216817166426,7153.854626876668,3537.342374007985,23467.252965838074,12211.786176179192,10032.356981320023,10404.021788122867,0.0,0.0,0.0,2019-03-17T21:28:11.598551,16,EyesOpen
-16716.17677404604,676.9002290845191,7264.987500308454,3662.3333290020623,23569.08751357645,12177.073917040101,10129.788235400705,10501.65420790365,0.0,0.0,0.0,2019-03-17T21:28:11.599032,16,EyesOpen
-16805.85197280073,591.6059722430673,7273.078831801276,3855.608863307102,23464.88368092581,12759.873301967777,10057.681507787885,10657.959956879611,0.0,0.0,0.0,2019-03-17T21:28:11.606470,16,EyesOpen
-16915.666093309654,493.0347791951632,7149.853664619168,3744.6771555754135,23338.48456603105,12867.407544542259,9941.854768020483,10575.482019839528,0.0,0.0,0.0,2019-03-17T21:28:11.607192,16,EyesOpen
-16822.45931893102,573.0093208562519,7123.009219528344,3535.17425479582,23435.82641313391,12302.57896215665,10011.368693276489,10418.840994696737,0.0,0.0,0.0,2019-03-17T21:28:11.615042,16,EyesOpen
-16692.17100050104,694.6475141820329,7245.094447743231,3623.0389622496323,23575.122484579384,12133.44331186334,10140.829997161627,10492.489992676974,0.006,1.016,0.178,2019-03-17T21:28:11.615680,16,EyesOpen
-16768.569263049278,636.5553303426898,7281.863067372212,3838.263909609784,23493.963300462165,12676.233074216017,10090.315054692634,10661.692698203648,0.0,0.0,0.0,2019-03-17T21:28:11.621934,16,EyesOpen
-16903.417337348146,506.84815726854293,7173.032423619321,3787.078414807131,23348.185223124652,12928.003123760596,9961.16667522987,10617.14567150422,0.0,0.0,0.0,2019-03-17T21:28:11.622797,16,EyesOpen
-16846.934479109583,546.2542827432493,7112.861527545635,3556.967205639745,23401.516485395015,12409.576762864204,9984.390137718932,10434.621326282184,0.0,0.0,0.0,2019-03-17T21:28:11.629045,16,EyesOpen
-16698.697709881988,686.6008861781223,7223.390903877128,3588.527868810638,23558.7610076381,12096.272360834166,10120.847537618583,10458.69415506055,0.0,0.0,0.0,2019-03-17T21:28:11.629584,16,EyesOpen
-16748.542100017323,664.807935334198,7293.5083262334265,3816.180386087941,23518.572571107456,12566.754229873924,10108.777595612717,10637.374000236274,0.0,0.0,0.0,2019-03-17T21:28:11.636438,16,EyesOpen
-16879.500970780966,547.5730356661124,7205.978894946444,3827.3562583155945,23364.457293088115,12948.186749003738,9976.79054460413,10644.750075906524,0.0,0.0,0.0,2019-03-17T21:28:11.637348,16,EyesOpen
-16863.675935706608,530.6080616245343,7120.88580380509,3595.076929936043,23373.91208099271,12521.402540374105,9966.285224710135,10461.085791717267,0.0,0.0,0.0,2019-03-17T21:28:11.644138,16,EyesOpen
-16728.894916641108,660.0246620207622,7201.3520838441955,3557.593054484493,23529.43551891274,12085.230599073244,10096.305322206656,10431.87206171418,0.0,0.0,0.0,2019-03-17T21:28:11.651210,16,EyesOpen
-16731.666532953564,679.9177145859856,7287.093375574753,3775.723728623835,23530.195478224217,12449.385219739106,10118.14297653949,10605.746281832015,0.0,0.0,0.0,2019-03-17T21:28:11.651919,16,EyesOpen
-16860.412581016135,544.0191082977186,7223.7708835328685,3849.730354515357,23383.702145064133,12936.206213975694,10001.98096060526,10665.96188139461,0.008,1.018,0.184,2019-03-17T21:28:11.658677,16,EyesOpen
-16878.741011469487,512.7713695491993,7120.796396827269,3634.6395176219366,23359.696371519134,12633.11655916173,9962.865407808473,10496.334492723287,0.0,0.0,0.0,2019-03-17T21:28:11.659196,16,EyesOpen
-16740.40606503559,643.9761095018517,7174.03825211981,3540.449266487273,23510.79416403701,12110.82334647457,10085.643540101473,10420.852651697714,0.0,0.0,0.0,2019-03-17T21:28:11.666902,16,EyesOpen
-16707.146669286092,683.0693105541839,7283.673558673091,3748.856931788556,23557.531661693058,12352.11042786961,10143.042819862703,10582.52281934295,0.0,0.0,0.0,2019-03-17T21:28:11.667598,16,EyesOpen
-16842.061798818326,559.3077015051487,7236.734895316947,3865.4883343563483,23405.42804067469,12896.867143734355,10022.276344570679,10669.649919229738,0.0,0.0,0.0,2019-03-17T21:28:11.674691,16,EyesOpen
-16892.979072687518,505.104721201029,7123.83623407319,3673.82212565209,23336.42820554116,12726.256278306995,9943.419390132356,10513.835908631792,0.0,0.0,0.0,2019-03-17T21:28:11.675153,16,EyesOpen
-16768.144579904627,628.7322197833323,7156.089801322199,3529.966298337734,23478.719410743644,12149.536567871162,10051.445371084854,10397.450375253007,0.0,0.0,0.0,2019-03-17T21:28:11.681490,16,EyesOpen
-16696.283721480813,704.1470055755384,7277.727994647979,3701.985323665777,23563.007839084607,12243.927984705924,10140.964107628359,10533.259574563453,0.0,0.0,0.0,2019-03-17T21:28:11.682047,16,EyesOpen
-16812.512792648413,591.3824547985142,7260.271282228385,3865.041299467242,23430.461994464637,12829.476634201603,10046.975022193792,10668.934663407168,0.0,0.0,0.0,2019-03-17T21:28:11.689472,16,EyesOpen
-16893.314348854346,500.47791009878046,7141.583519170705,3718.3020971181513,23333.678940973157,12817.317285217916,9950.303727424589,10553.599662017783,0.0,0.0,0.0,2019-03-17T21:28:11.690165,16,EyesOpen
-16797.827696541273,589.035521630707,7134.766237111836,3523.9536790792563,23447.11404408384,12226.337161819598,10030.144158618947,10401.674854955061,0.006,1.022,0.176,2019-03-17T21:28:11.697540,16,EyesOpen
-16691.16517200055,698.737883417354,7263.065250285298,3656.8347998660565,23569.780417654565,12180.136106030477,10148.20607283188,10508.31502775133,0.0,0.0,0.0,2019-03-17T21:28:11.698145,16,EyesOpen
-16774.403068352112,625.3124028816704,7281.281922016374,3860.436840109449,23468.079980382918,12757.548720544424,10081.642577843973,10668.10764886232,0.0,0.0,0.0,2019-03-17T21:28:11.703798,16,EyesOpen
-16887.39113657369,508.4574828693251,7155.933339111011,3755.69656559188,23330.370882793773,12881.064460404452,9952.807122803584,10580.019423963955,0.0,0.0,0.0,2019-03-17T21:28:11.710911,16,EyesOpen
-16816.42434792809,570.5506289661681,7117.622449114615,3532.7602663946473,23412.222970989107,12315.006532073801,10002.897382127927,10408.402730036109,0.0,0.0,0.0,2019-03-17T21:28:11.711427,16,EyesOpen
-16699.837648849207,690.2442205243374,7233.4044853931055,3602.609467817482,23552.726036635166,12112.276209864165,10132.358686013065,10466.986652253468,0.0,0.0,0.0,2019-03-17T21:28:11.719126,16,EyesOpen
-16759.919137945075,638.5446355992121,7277.39271848115,3825.23284259234,23482.139227645308,12647.421675613126,10096.573543140119,10643.654840428215,0.0,0.0,0.0,2019-03-17T21:28:11.720071,16,EyesOpen
-16888.978110430016,518.5381196186686,7172.56303698576,3790.3864729865163,23340.94325792113,12931.445292406714,9969.34741370051,10616.698636615114,0.0,0.0,0.0,2019-03-17T21:28:11.727018,16,EyesOpen
-16848.789673899373,549.2270647558051,7106.647742587059,3562.5551417535717,23389.49124687806,12434.45425444296,9989.843963366027,10439.225785639976,0.0,0.0,0.0,2019-03-17T21:28:11.727517,16,EyesOpen
-16709.091271053705,684.5445256882341,7205.5765635462485,3577.6202175164485,23545.528774920556,12096.741747467728,10124.62498243153,10453.217977668999,0.0,0.0,0.0,2019-03-17T21:28:11.733717,16,EyesOpen
-16728.53728872982,670.9770168038627,7283.2935790173515,3813.073493608653,23521.098318230906,12557.277090224874,10125.541403954197,10639.29625025943,0.01,1.022,0.18,2019-03-17T21:28:11.734386,16,EyesOpen
-16881.62438650422,526.8082650671322,7192.18786861752,3829.502025783304,23357.662362773703,12948.924356570764,9989.799259877118,10648.48281723056,0.0,0.0,0.0,2019-03-17T21:28:11.741601,16,EyesOpen
-16881.691441737585,515.9676690063083,7105.865431531123,3594.09345318001,23360.165758152696,12539.172177216074,9971.806105590595,10463.946815007546,0.0,0.0,0.0,2019-03-17T21:28:11.742129,16,EyesOpen
-16737.34387604521,652.4921241393238,7193.350159329196,3547.668879946337,23525.27809444405,12091.578494498552,10108.598781657074,10433.168462892589,0.0,0.0,0.0,2019-03-17T21:28:11.749897,16,EyesOpen
-16728.090253840717,670.8429063371309,7289.4626604870155,3772.7285948668236,23538.21975448367,12442.344420235684,10138.259546549267,10609.456671411595,0.0,0.0,0.0,2019-03-17T21:28:11.750529,16,EyesOpen
-16865.642889218678,542.1192100190175,7219.747569530913,3847.04814518072,23380.10351420683,12939.223699477161,10008.910001386404,10667.191227339654,0.0,0.0,0.0,2019-03-17T21:28:11.756826,16,EyesOpen
-16895.01308143295,514.1795294498837,7117.778911325802,3634.6618693663922,23349.056941158407,12662.21853044254,9961.412544418878,10501.69891139256,0.0,0.0,0.0,2019-03-17T21:28:11.757385,16,EyesOpen
-16767.138751404138,642.1879699454272,7170.238455562408,3526.5241296916165,23498.143076675307,12123.250916391722,10080.010900498737,10417.008151651402,0.0,0.0,0.0,2019-03-17T21:28:11.763122,16,EyesOpen
-16725.78802416182,684.321008243681,7276.118669047198,3717.9668209513216,23546.244030743128,12330.496290981328,10139.175968071935,10566.831894735324,0.0,0.0,0.0,2019-03-17T21:28:11.771072,16,EyesOpen
-16849.840205888773,556.357271237048,7234.075037726765,3844.589453290636,23400.91298829472,12888.55229479698,10022.611620737509,10663.011451126511,0.0,0.0,0.0,2019-03-17T21:28:11.771603,16,EyesOpen
-16907.4406513501,504.88120375647594,7123.210385228442,3673.017462851699,23331.779042694456,12756.520540299482,9947.822683790051,10523.447158747573,0.012,1.024,0.178,2019-03-17T21:28:11.779197,16,EyesOpen
-16779.834542254754,626.6982110378995,7151.418286731039,3525.451245957762,23470.561024017457,12180.717251386315,10054.999298453247,10407.598067235716,0.0,0.0,0.0,2019-03-17T21:28:11.779645,16,EyesOpen
-16698.585951159712,712.5959649796445,7274.174067279586,3693.625771239492,23559.789187883045,12250.745266764792,10147.49081700931,10535.807673431358,0.0,0.0,0.0,2019-03-17T21:28:11.787829,16,EyesOpen
-16800.80047855383,625.6029755595894,7273.056480056821,3879.8828577855656,23442.50958472605,12853.393000768781,10067.069240459114,10685.631416515282,0.0,0.0,0.0,2019-03-17T21:28:11.788279,16,EyesOpen
-16889.44749706358,533.1338087479841,7150.6359756751035,3744.78891429769,23333.544830506424,12871.296748077482,9964.49708515371,10576.018461706455,0.0,0.0,0.0,2019-03-17T21:28:11.794060,16,EyesOpen
-16785.981271979963,608.3697805845476,7139.773027869825,3549.769943925136,23445.839994649887,12288.966749783367,10045.522158804199,10424.473634299473,0.0,0.0,0.0,2019-03-17T21:28:11.794480,16,EyesOpen
-16688.415907432547,710.2937353007478,7248.223691966974,3655.650157409925,23555.56470818099,12198.911571372935,10151.268261822255,10510.594905685772,0.0,0.0,0.0,2019-03-17T21:28:11.801792,16,EyesOpen
-16777.42055385358,630.9673942288631,7268.720241632491,3862.0014622213203,23461.97795414662,12776.145371931241,10090.784441326196,10675.997814655044,0.0,0.0,0.0,2019-03-17T21:28:11.802109,16,EyesOpen
-16914.72732004253,508.1892619358614,7140.242414503386,3763.117344751042,23321.541943733926,12933.03226626304,9960.87610255195,10595.866810782769,0.0,0.0,0.0,2019-03-17T21:28:11.809771,16,EyesOpen
-16845.48161571999,555.2173322698275,7097.774100038302,3540.0692868315327,23400.10832549433,12385.727451530392,10010.474623498276,10421.25498309791,0.0,0.0,0.0,2019-03-17T21:28:11.810274,16,EyesOpen
-16717.562582202267,667.8924760690303,7214.539613072827,3602.47535735075,23545.148795264817,12171.865960582014,10140.964107628359,10471.859332544725,0.014,1.022,0.176,2019-03-17T21:28:11.816914,16,EyesOpen
-16760.99202167893,638.8128565326758,7275.3140062468065,3830.0384676502313,23489.291785871006,12703.055167562386,10114.276124748721,10654.048401599932,0.0,0.0,0.0,2019-03-17T21:28:11.817558,16,EyesOpen
-16889.134572641204,522.2038057093389,7180.073223122743,3806.6361912055245,23345.637124256747,13013.878525957887,9989.955722088305,10635.29528800193,0.0,0.0,0.0,2019-03-17T21:28:11.823832,16,EyesOpen
-16872.57192999982,540.1969599958611,7101.305675662241,3563.2256940872307,23373.979136226077,12523.324790397262,9990.782736633151,10440.321021118287,0.0,0.0,0.0,2019-03-17T21:28:11.831501,16,EyesOpen
-16747.178643605548,665.8808190680527,7201.374435588651,3563.5833219985157,23531.26836195807,12162.813504077614,10126.860156877061,10441.907994974614,0.0,0.0,0.0,2019-03-17T21:28:11.832170,16,EyesOpen
-16757.058114654796,655.0402230072287,7289.261494786918,3795.236801533318,23517.52203911806,12608.462585027526,10138.348953527087,10629.0591512989,0.0,0.0,0.0,2019-03-17T21:28:11.838836,16,EyesOpen
-16894.878970966216,518.0240294961965,7200.860345466179,3817.588545988625,23353.951973194122,13025.836709241476,9999.186992548346,10644.638317184248,0.0,0.0,0.0,2019-03-17T21:28:11.839528,16,EyesOpen
-16890.67684300862,514.4477503833474,7101.439786128973,3583.5210780526495,23345.882993445754,12639.30799237585,9970.800277090106,10456.704849804026,0.0,0.0,0.0,2019-03-17T21:28:11.847753,16,EyesOpen
-16744.943469160018,644.2666821797708,7172.51833349685,3525.026562813111,23504.289806400517,12167.1720942464,10100.038063530692,10409.900296914613,0.0,0.0,0.0,2019-03-17T21:28:11.848398,16,EyesOpen
-16727.531460229333,668.9653598028851,7276.364538236206,3750.376850411517,23528.42969041225,12492.747603982401,10140.561776228164,10585.741470544514,0.0,0.0,0.0,2019-03-17T21:28:11.855689,16,EyesOpen
-16870.29205206538,543.5050181752465,7211.790348504824,3836.095790397619,23372.481569347572,12999.104022872929,10011.860431654506,10646.649974185226,0.006,1.018,0.178,2019-03-17T21:28:11.856371,16,EyesOpen
-16896.085965166803,513.9560120053306,7104.546678608261,3628.7833605746464,23332.85192642831,12743.265955837483,9957.121009483459,10480.621216371204,0.0,0.0,0.0,2019-03-17T21:28:11.862499,16,EyesOpen
-16754.42060880907,639.9304437554412,7153.9216821100335,3515.7952923530693,23478.02650666553,12198.486888228284,10073.99828124026,10389.604912949195,0.0,0.0,0.0,2019-03-17T21:28:11.863208,16,EyesOpen
-16712.332273999724,686.6008861781223,7263.489933429949,3706.2768586011957,23530.21782996867,12382.933483473478,10136.560813970664,10532.99135362999,0.0,0.0,0.0,2019-03-17T21:28:11.869090,16,EyesOpen
-16839.89367960616,573.3445970230815,7232.5774708482595,3849.61859579308,23389.6700608337,12951.114827527384,10027.797225451139,10641.173796793675,0.0,0.0,0.0,2019-03-17T21:28:11.869844,16,EyesOpen
-16899.751651257473,503.7189130448,7116.437806658484,3681.309960044618,23313.160039563187,12846.553366965458,9949.856692535484,10507.689178906581,0.0,0.0,0.0,2019-03-17T21:28:11.877130,16,EyesOpen
-16776.481780586455,608.54859454019,7133.112208022143,3519.9750685662116,23444.409483004747,12265.385659383019,10051.110094918025,10380.105421555689,0.0,0.0,0.0,2019-03-17T21:28:11.877917,16,EyesOpen
-16695.50141042488,684.4774704548681,7256.784410093357,3680.01355886621,23545.260553987093,12305.618799402571,10151.67059322245,10505.454004461051,0.0,0.0,0.0,2019-03-17T21:28:11.884216,16,EyesOpen
-16805.539048378356,592.4329867879137,7262.171180507086,3867.611750079602,23432.808927632443,12895.481335578124,10073.171266695414,10656.06005860091,0.0,0.0,0.0,2019-03-17T21:28:11.884843,16,EyesOpen
-16897.29295936739,508.5692415916016,7143.5951761716815,3740.0950479620756,23319.820859410866,12936.630897120345,9967.939253799826,10551.498598038985,0.0,0.0,0.0,2019-03-17T21:28:11.892175,16,EyesOpen
-16814.077414760282,583.8052134281652,7121.131672994098,3532.2014727832643,23416.469802435615,12342.409770776007,10032.356981320023,10384.620473935662,0.014,1.024,0.18,2019-03-17T21:28:11.898423,16,EyesOpen
-16712.332273999724,686.0420925667397,7240.266470940885,3635.667697866881,23537.906830061296,12224.504318774263,10144.853311163582,10463.209207440521,0.0,0.0,0.0,2019-03-17T21:28:11.899060,16,EyesOpen
-16782.13677193365,628.2181296608603,7274.777564379879,3854.3795173620606,23461.106236112864,12799.34648267585,10100.663912375441,10638.53629094795,0.0,0.0,0.0,2019-03-17T21:28:11.906772,16,EyesOpen
-16897.404718089667,514.6042125945345,7156.313318766752,3772.1921529998963,23319.15030707721,12988.33048204547,9971.135553256936,10573.403307605186,0.0,0.0,0.0,2019-03-17T21:28:11.907477,16,EyesOpen
-16832.159976024624,567.0414050866849,7114.180280468498,3548.540597980094,23392.195807957152,12444.64664991458,10012.575687477076,10398.545610731318,0.0,0.0,0.0,2019-03-17T21:28:11.914607,16,EyesOpen
-16715.506221712378,679.9400663304408,7231.124607458664,3599.3908166159176,23539.247934728617,12187.243960767266,10144.20511057438,10441.818587996791,0.0,0.0,0.0,2019-03-17T21:28:11.915282,16,EyesOpen
-16768.03282118235,633.8060657746871,7286.869858130201,3819.7343134563343,23484.374402090838,12694.785022113923,10116.868927105537,10617.615058137782,0.0,0.0,0.0,2019-03-17T21:28:11.921794,16,EyesOpen
-16889.62631101922,511.2067474373278,7187.091670881709,3798.4107492459716,23333.27660957296,13023.892107473865,9983.987806318737,10601.946485274611,0.0,0.0,0.0,2019-03-17T21:28:11.922435,16,EyesOpen
-16857.81977865932,537.3359367055817,7115.923716536012,3570.4453075462948,23365.261955888505,12562.060363538309,9989.799259877118,10422.886660443148,0.0,0.0,0.0,2019-03-17T21:28:11.929121,16,EyesOpen
-16724.536326472324,661.7457463438209,7201.195621633008,3552.675670704326,23509.587169836424,12173.519989671708,10111.951543325371,10408.670950969572,0.0,0.0,0.0,2019-03-17T21:28:11.929755,16,EyesOpen
-16725.519803228355,664.8302870786533,7290.222619798496,3792.174612542941,23503.731012789132,12601.935875646577,10131.486967979308,10599.130165473243,0.016,1.02,0.182,2019-03-17T21:28:11.937423,16,EyesOpen
-16867.319270052823,534.1396372484729,7206.984723446933,3835.067610152675,23342.798452710922,13042.645221071867,9995.45425122431,10629.729703632558,0.0,0.0,0.0,2019-03-17T21:28:11.938078,16,EyesOpen
-16875.656470734655,529.8033988241433,7115.45432990245,3615.3499621570068,23332.114318861284,12685.643158631703,9966.3522799435,10453.374439880186,0.0,0.0,0.0,2019-03-17T21:28:11.944331,16,EyesOpen
-16738.997905134907,660.1364207430388,7188.052795893288,3548.7417636801915,23488.956509704174,12195.84938238256,10094.80775532815,10397.495078741918,0.0,0.0,0.0,2019-03-17T21:28:11.945016,16,EyesOpen
-16712.891067611108,686.287961755748,7295.430576256583,3767.2300657308183,23518.7513850631,12492.725252237948,10140.494720994797,10567.927130213635,0.0,0.0,0.0,2019-03-17T21:28:11.950847,16,EyesOpen
-16834.484557447977,565.4097277414475,7241.048781996821,3864.303691900217,23366.20072915563,13018.170060893306,10017.537774746153,10644.414799739696,0.0,0.0,0.0,2019-03-17T21:28:11.958978,16,EyesOpen
-16872.035488132893,515.6994480728446,7130.161777754042,3658.7794016336684,23310.9025133732,12788.707052315123,9951.376611158445,10479.1236494927,0.0,0.0,0.0,2019-03-17T21:28:11.959861,16,EyesOpen
-16755.69465824302,627.4581703493799,7164.6058159596705,3528.5357866925942,23450.802081918966,12226.314810075142,10058.374411866,10374.852761608692,0.0,0.0,0.0,2019-03-17T21:28:11.967037,16,EyesOpen
-16698.653006393077,695.742749660343,7281.34897724974,3716.983344195288,23520.94185601972,12386.867390497613,10135.845558148094,10523.067179091833,0.0,0.0,0.0,2019-03-17T21:28:11.967804,16,EyesOpen
-16822.794595097854,591.0248268872293,7256.873817071179,3869.846924525133,23386.607871843324,12965.598757934424,10036.447350555343,10645.465331729094,0.0,0.0,0.0,2019-03-17T21:28:11.974054,16,EyesOpen
-16894.81191573285,510.200918936839,7131.122902765621,3697.4926230302603,23296.12801028824,12883.07611740543,9941.474788364743,10508.672655662616,0.0,0.0,0.0,2019-03-17T21:28:11.974692,16,EyesOpen
-16782.695565545033,615.2541178767822,7142.231719759909,3529.3628012374406,23426.416328718227,12300.522601666762,10036.827330211083,10375.590369175718,0.012,1.028,0.178,2019-03-17T21:28:11.982772,16,EyesOpen
-16696.86486683665,698.8943456285413,7267.289729987351,3684.975646135288,23533.168260236773,12315.319456496174,10144.026296618737,10497.31796947932,0.0,0.0,0.0,2019-03-17T21:28:11.983403,16,EyesOpen
-16800.84518204274,607.4757108063353,7266.48506718696,3871.5680088481918,23418.88379083679,12897.202419901183,10061.816580512117,10643.476026472572,0.0,0.0,0.0,2019-03-17T21:28:11.989528,16,EyesOpen
-16897.091793667292,506.7363985462664,7146.657365162059,3751.2038649563633,23301.447725468606,12965.129371300862,9946.950965756294,10544.681315980115,0.0,0.0,0.0,2019-03-17T21:28:11.990262,16,EyesOpen
-16806.589580367756,577.3679110250367,7126.876071319112,3543.4444002442838,23398.029613259987,12386.912093986522,10009.535850231154,10380.440697722519,0.0,0.0,0.0,2019-03-17T21:28:11.997608,16,EyesOpen
-16703.369224473146,688.7466536458319,7244.401543665117,3636.9193955563783,23523.17703046525,12248.599499297083,10124.155595797969,10453.150922435632,0.0,0.0,0.0,2019-03-17T21:28:11.998243,16,EyesOpen
-16771.09501017273,637.0470687207066,7284.210000540019,3859.5427703312366,23444.901221382766,12812.757529349034,10078.490981875775,10628.455654198606,0.0,0.0,0.0,2019-03-17T21:28:12.004126,16,EyesOpen
-16891.10152615327,517.5099393737245,7167.936225883512,3789.805327630678,23300.08426905683,13024.316790618515,9946.839207034018,10570.005842447978,0.0,0.0,0.0,2019-03-17T21:28:12.004818,16,EyesOpen
-16827.04142654436,565.297969019171,7123.299792206263,3563.3598045539625,23367.87710998978,12494.155763883087,9985.731242386251,10397.048043852812,0.0,0.0,0.0,2019-03-17T21:28:12.011395,16,EyesOpen
-16695.233189491413,698.1567380615161,7229.805854535802,3597.5803253150375,23514.325739660948,12212.747301190771,10114.969028826838,10426.999381422924,0.0,0.0,0.0,2019-03-17T21:28:12.020737,16,EyesOpen
-16736.449806267003,663.3774236890583,7285.685215674069,3824.9646216588762,23466.381247804315,12698.8977430937,10093.109022749546,10602.974665519556,0.008,1.022,0.176,2019-03-17T21:28:12.021535,16,EyesOpen
-16875.567063756833,521.3991429089479,7185.370586558651,3817.23091807734,23310.835458139834,13041.86291001593,9956.53986412762,10590.033005479932,0.0,0.0,0.0,2019-03-17T21:28:12.028645,16,EyesOpen
-16856.121046080716,534.0502302706517,7109.017027499322,3585.689197264814,23333.70129271761,12595.476221498993,9953.745896070706,10402.703035200006,0.0,0.0,0.0,2019-03-17T21:28:12.029291,16,EyesOpen
-16720.848288637197,669.613560392089,7198.602819276192,3561.638720230904,23489.403544593282,12191.759013147237,10085.978816268303,10381.24536052291,0.0,0.0,0.0,2019-03-17T21:28:12.034726,16,EyesOpen
-16724.536326472324,691.2276972803709,7292.122518077197,3796.2873335227173,23490.02939343803,12594.850372654246,10106.542421167185,10563.859112722768,0.0,0.0,0.0,2019-03-17T21:28:12.035434,16,EyesOpen
-16861.28429904989,571.6682161889335,7222.318020143273,3854.692441784435,23335.690597974135,13054.469293888724,9978.466925438277,10605.902744043202,0.0,0.0,0.0,2019-03-17T21:28:12.041832,16,EyesOpen
-16876.170560857125,537.067715772118,7121.399893927562,3632.851378065512,23313.964702363577,12718.187298558629,9939.485483108221,10430.73212274696,0.0,0.0,0.0,2019-03-17T21:28:12.042515,16,EyesOpen
-16739.69080921302,658.5717986311673,7180.408499289572,3545.3890020118956,23465.397771048283,12209.729815689305,10058.553225821643,10357.641918378105,0.0,0.0,0.0,2019-03-17T21:28:12.049986,16,EyesOpen
-16708.6442361646,684.2986564992257,7277.191552781052,3749.5721876111256,23499.260663898072,12474.575635740237,10104.396653699476,10517.054559833356,0.0,0.0,0.0,2019-03-17T21:28:12.050810,16,EyesOpen
-16842.352371496247,562.3698904955257,7220.149900931108,3853.9324824729542,23345.61477251229,13003.753185719632,9978.466925438277,10595.57623810485,0.0,0.0,0.0,2019-03-17T21:28:12.057072,16,EyesOpen
-16894.275473865924,517.2417184402607,7110.447539144461,3661.8415906240452,23290.718888130057,12806.610799623824,9914.429177573822,10442.422085097085,0.006,1.024,0.17200000000000001,2019-03-17T21:28:12.058025,16,EyesOpen
-16763.361306591192,630.3191936396591,7143.7069348939585,3523.9313273348007,23431.646636920766,12240.239946870799,10026.50082427273,10336.698333823482,0.0,0.0,0.0,2019-03-17T21:28:12.064530,16,EyesOpen
-16693.53445691281,697.2850200277592,7261.835904340256,3707.148576634953,23506.927312246244,12372.092887412655,10110.945714824882,10481.984672782979,0.0,0.0,0.0,2019-03-17T21:28:12.065161,16,EyesOpen
-16825.432100943577,589.616666986545,7247.351973933217,3869.981034991865,23378.67300256169,12954.199368262216,10017.224850323779,10611.91536330168,0.0,0.0,0.0,2019-03-17T21:28:12.071583,16,EyesOpen
-16897.091793667292,514.7606748057217,7131.145254510076,3712.3565330930396,23292.9987660645,12901.896286236799,9925.58269805702,10486.276207718398,0.0,0.0,0.0,2019-03-17T21:28:12.079328,16,EyesOpen
-16789.646958070633,610.6049550300784,7131.748751610369,3529.1169320484323,23415.173401257205,12306.334055225141,10010.45227175382,10340.699296080982,0.0,0.0,0.0,2019-03-17T21:28:12.080110,16,EyesOpen
-16711.862887366162,691.3618077471027,7242.032258752854,3656.72304114378,23516.292693173014,12278.90846477848,10105.983627555803,10440.365724607198,0.0,0.0,0.0,2019-03-17T21:28:12.086387,16,EyesOpen
-16799.392318653147,617.3328301111258,7254.8845118146555,3859.162790675496,23418.235590247583,12870.894416677287,10039.12955988998,10599.510145128983,0.0,0.0,0.0,2019-03-17T21:28:12.086831,16,EyesOpen
-16896.331834355813,519.5662998636127,7136.532024923805,3753.7966673131787,23298.541998689416,12975.925263872776,9926.074436435038,10514.059426076345,0.0,0.0,0.0,2019-03-17T21:28:12.094254,16,EyesOpen
-16812.55749613732,607.9003939509862,7110.69340833347,3544.60669095596,23391.569959112403,12406.69338782947,9986.334739486545,10350.198787474488,0.0,0.0,0.0,2019-03-17T21:28:12.094647,16,EyesOpen
-16694.003843546372,719.7485232053427,7237.248985439419,3636.181787989353,23529.904905546297,12243.302135861175,10115.080787549114,10422.77490172087,0.008,1.022,0.17400000000000002,2019-03-17T21:28:12.101759,16,EyesOpen
-16762.288422857335,641.2044931893937,7284.902904618133,3860.101563942619,23459.027523878518,12795.501982629536,10076.56873185262,10597.878467783747,0.0,0.0,0.0,2019-03-17T21:28:12.102087,16,EyesOpen
-16892.241465120493,517.8005120516434,7167.288025294308,3798.880135879533,23306.43216448214,13029.658857543332,9940.714829053262,10543.22845259052,0.0,0.0,0.0,2019-03-17T21:28:12.109017,16,EyesOpen
-16837.05500806034,566.616721942034,7108.212364698931,3563.404508042873,23359.00346744102,12508.170307656565,9963.938291542327,10358.714802111961,0.0,0.0,0.0,2019-03-17T21:28:12.109492,16,EyesOpen
-16701.44697444999,703.2529357973261,7213.623191550159,3586.1585838983756,23507.88843725782,12199.000978350758,10093.80192682766,10378.205523276989,0.0,0.0,0.0,2019-03-17T21:28:12.116812,16,EyesOpen
-16740.562527246777,672.4298801934576,7280.812535382812,3817.9908773888205,23469.242271094594,12672.969719525543,10078.379223153499,10558.315880097853,0.0,0.0,0.0,2019-03-17T21:28:12.117726,16,EyesOpen
-16878.897473680674,536.5983291385567,7184.252999335886,3823.355296058094,23313.38355700774,13037.571375080512,9941.497140109199,10556.415981819151,0.0,0.0,0.0,2019-03-17T21:28:12.124829,16,EyesOpen
-16861.798389172363,539.4146489399253,7103.160870452031,3585.0633484200657,23328.09100485933,12602.248800068952,9929.628363803431,10368.95190107249,0.0,0.0,0.0,2019-03-17T21:28:12.125462,16,EyesOpen
-16721.585896204222,678.8895343410414,7194.7136157409695,3552.407449770862,23488.30830911497,12177.520951929208,10064.454086357842,10345.750790327882,0.0,0.0,0.0,2019-03-17T21:28:12.131982,16,EyesOpen
-16725.07276833925,696.9720956053849,7288.8144598978115,3783.5021356942816,23495.304405129482,12555.44424717954,10092.103194249057,10527.068141349333,0.0,0.0,0.0,2019-03-17T21:28:12.132707,16,EyesOpen
-16862.20072057256,566.393204497481,7220.351066631207,3852.9937092058312,23346.933525435154,13034.129206434394,9971.537884657131,10581.896970498201,0.008,1.02,0.17400000000000002,2019-03-17T21:28:12.139169,16,EyesOpen
-16881.087944637293,547.2154077548275,7115.968420024922,3634.438351921839,23319.105603588298,12721.13772882673,9930.388323114912,10407.48630851344,0.0,0.0,0.0,2019-03-17T21:28:12.146373,16,EyesOpen
-16738.528518501345,659.3317579426478,7172.540685241304,3541.8797781324124,23471.768018218045,12200.543248718173,10052.831179241084,10334.95489775597,0.0,0.0,0.0,2019-03-17T21:28:12.147277,16,EyesOpen
-16707.861925108664,702.4259212524797,7276.029262069376,3744.6101003420476,23513.431669882735,12444.534891192305,10107.727063623317,10496.960341568034,0.0,0.0,0.0,2019-03-17T21:28:12.154508,16,EyesOpen
-16828.650752145142,587.5379547522015,7227.347162645718,3864.1248779445746,23364.703162277125,12992.979644892175,9990.849791866516,10589.116583957266,0.0,0.0,0.0,2019-03-17T21:28:12.155145,16,EyesOpen
-16881.087944637293,525.2436429552606,7115.968420024922,3678.2924745431515,23299.816048123368,12822.7264073761,9919.145395653892,10441.460960085507,0.0,0.0,0.0,2019-03-17T21:28:12.162498,16,EyesOpen
-16767.138751404138,638.4999321103015,7146.322088995229,3531.7767896386135,23439.35798875785,12250.074714431134,10025.159719605414,10331.512729109852,0.0,0.0,0.0,2019-03-17T21:28:12.163269,16,EyesOpen
-16697.6918813815,709.578479478178,7267.9155788320995,3705.1592713784307,23523.13232697634,12356.290204082752,10113.605572415063,10474.250969201443,0.0,0.0,0.0,2019-03-17T21:28:12.169021,16,EyesOpen
-16811.685778103565,599.518489780246,7250.682383857058,3864.7954302782337,23390.9217585232,12935.915641297775,10017.068388112591,10603.91343878668,0.0,0.0,0.0,2019-03-17T21:28:12.169680,16,EyesOpen
-16891.794430231384,518.8286922965875,7130.228832987408,3710.0319516696877,23289.601300907292,12909.652341562789,9914.965619440749,10480.040071015366,0.0,0.0,0.0,2019-03-17T21:28:12.177106,16,EyesOpen
-16791.345690649236,619.679763278933,7122.249260216864,3517.024638298111,23401.96352028412,12321.980276343857,9993.084966312048,10329.702237808971,0.01,1.024,0.17400000000000002,2019-03-17T21:28:12.177736,16,EyesOpen
-16693.60151214618,717.222776081893,7244.133322731653,3647.491770683738,23521.254780442094,12278.863761289569,10106.900049078471,10434.084884415255,0.0,0.0,0.0,2019-03-17T21:28:12.184956,16,EyesOpen
-16785.42247836858,636.7564960427876,7255.130381003664,3842.33192710065,23415.866305335323,12850.68843968969,10032.89342318695,10584.243903666009,0.0,0.0,0.0,2019-03-17T21:28:12.185579,16,EyesOpen
-16896.890627967194,518.2922504296602,7132.799283599768,3735.378829882006,23283.029888037432,12970.069106825484,9907.76835772614,10493.451117688552,0.0,0.0,0.0,2019-03-17T21:28:12.192463,16,EyesOpen
-16812.959827537517,588.5884867416008,7106.2007076979535,3524.668934901826,23375.43199961567,12409.59911460866,9968.609806133487,10328.428188375019,0.0,0.0,0.0,2019-03-17T21:28:12.193366,16,EyesOpen
-16694.003843546372,714.4958632583456,7222.899165499111,3598.8096712600795,23513.834001282932,12213.127280846511,10094.673644861417,10387.839125137225,0.0,0.0,0.0,2019-03-17T21:28:12.198870,16,EyesOpen
-16759.53915828933,653.6544148509997,7264.406354952616,3818.370857044561,23444.275372538017,12748.563319273391,10055.736906020273,10562.80858073337,0.0,0.0,0.0,2019-03-17T21:28:12.206503,16,EyesOpen
-16874.158903856147,525.4001051664478,7160.358984513162,3777.780089113723,23302.788830135923,13015.487851558668,9930.72359928174,10529.07979835031,0.0,0.0,0.0,2019-03-17T21:28:12.207263,16,EyesOpen
-16821.81111834182,570.0141870992408,7100.344550650662,3553.033298615611,23355.807167983912,12515.345217626718,9958.506817639687,10353.685659609517,0.0,0.0,0.0,2019-03-17T21:28:12.214466,16,EyesOpen
-16707.504297197378,693.3064095147145,7187.583409259726,3560.61053998596,23496.019660952054,12172.894140826958,10077.038118486182,10356.725496855439,0.0,0.0,0.0,2019-03-17T21:28:12.215249,16,EyesOpen
-16731.55477423129,677.839002351642,7258.080811271765,3790.0288450752314,23466.336544315403,12632.73657950599,10068.32093814861,10535.092417608788,0.01,1.026,0.176,2019-03-17T21:28:12.221677,16,EyesOpen
-16857.775075170408,557.9665968378303,7178.799173688791,3820.5836797456363,23323.106565845796,13035.559718079534,9946.839207034018,10557.868845208746,0.0,0.0,0.0,2019-03-17T21:28:12.222315,16,EyesOpen
-16858.356220526246,542.8791693304979,7081.814954497213,3582.381139085429,23315.730490175545,12619.392588066172,9923.034599189115,10367.297871982799,0.0,0.0,0.0,2019-03-17T21:28:12.229179,16,EyesOpen
-16727.30794278478,677.4590226959018,7154.055792576765,3530.4803884602056,23466.045971637486,12171.329518715087,10048.427885583387,10327.891746508092,0.0,0.0,0.0,2019-03-17T21:28:12.230039,16,EyesOpen
-16717.83080313573,701.7106654299099,7249.34127918974,3751.8967690344775,23480.865178211356,12524.867060764678,10079.966197009826,10507.242144017477,0.0,0.0,0.0,2019-03-17T21:28:12.237382,16,EyesOpen
-16848.14147331017,568.9189516209307,7186.465822036961,3827.6691827379686,23333.008388639497,13018.125357404395,9958.797390317606,10572.553941315884,0.0,0.0,0.0,2019-03-17T21:28:12.238169,16,EyesOpen
-16874.360069556245,529.9822127797858,7081.0773469301885,3610.767854543669,23294.60809166528,12731.955973143098,9909.444738560289,10404.468823011974,0.0,0.0,0.0,2019-03-17T21:28:12.244552,16,EyesOpen
-16746.575146505256,659.3764614315584,7135.637955145593,3509.447396927762,23447.471671995125,12199.582123706596,10029.965344663304,10324.404874373064,0.0,0.0,0.0,2019-03-17T21:28:12.245191,16,EyesOpen
-16700.59760816069,707.1421393325495,7251.330584446262,3715.0610941721316,23502.83694301092,12420.685579858493,10097.646426873975,10486.589132140773,0.0,0.0,0.0,2019-03-17T21:28:12.251932,16,EyesOpen
-16818.391301440155,588.521431508235,7210.561002559782,3847.204607391907,23358.936412207655,12980.440316252747,9987.675844153864,10588.736604301526,0.0,0.0,0.0,2019-03-17T21:28:12.252606,16,EyesOpen
-16882.026717904417,515.7665033062104,7089.123974934098,3659.9640440897997,23277.97839379053,12834.729294148601,9902.426290801322,10438.242308883942,0.014,1.028,0.176,2019-03-17T21:28:12.258987,16,EyesOpen
-16759.673268756065,639.4610571218798,7119.12001599312,3509.2462312276643,23418.34734896986,12257.562548823662,10008.84294615304,10317.878164992115,0.0,0.0,0.0,2019-03-17T21:28:12.266748,16,EyesOpen
-16687.45478242097,716.7310377038763,7241.71933433048,3673.576256463082,23508.804858780488,12329.713979925393,10100.395691441976,10447.339468877253,0.0,0.0,0.0,2019-03-17T21:28:12.267450,16,EyesOpen
-16803.460336144013,621.2667371352599,7230.655220825103,3843.8965492125217,23384.171531697695,12914.703835809689,10007.993579863738,10579.505333841484,0.0,0.0,0.0,2019-03-17T21:28:12.274157,16,EyesOpen
-16888.01698541844,532.6644221144226,7109.93344902199,3700.979495165288,23280.772361847445,12918.794205045011,9904.572058269032,10463.58918709626,0.0,0.0,0.0,2019-03-17T21:28:12.274800,16,EyesOpen
-16788.41761212559,614.4271033319359,7099.875164017101,3509.469748672217,23387.72545906609,12329.266945036286,9978.73514637174,10306.814051486737,0.0,0.0,0.0,2019-03-17T21:28:12.282075,16,EyesOpen
-16683.476171907925,718.9662121494069,7218.987610219433,3627.4422559073278,23499.931216231733,12245.872586473535,10086.202333712858,10395.371663018665,0.0,0.0,0.0,2019-03-17T21:28:12.282726,16,EyesOpen
-16763.07073391327,645.2725106802596,7240.422933152072,3832.720676984868,23406.25505521954,12816.736139862078,10023.595097493542,10557.935900442113,0.0,0.0,0.0,2019-03-17T21:28:12.289223,16,EyesOpen
-16877.466962035534,537.0900675165734,7120.88580380509,3739.625661328514,23271.31757394285,12966.895159112832,9897.91123842135,10480.464754160019,0.0,0.0,0.0,2019-03-17T21:28:12.289913,16,EyesOpen
-16804.62262685569,599.004399657774,7084.720681276403,3518.9468883212676,23350.442749314636,12408.906210530546,9945.654564577886,10307.126975909112,0.0,0.0,0.0,2019-03-17T21:28:12.296912,16,EyesOpen
-16680.39163117309,710.8748806565858,7202.894354211611,3586.7397292542137,23496.08671618542,12186.036966566679,10077.082821975091,10361.95580505798,0.018000000000000002,1.028,0.17,2019-03-17T21:28:12.297791,16,EyesOpen
-16742.5518325033,661.8798568105527,7250.414162923595,3809.787787173723,23432.518354954525,12712.577010700346,10044.51633030371,10539.205138588564,0.0,0.0,0.0,2019-03-17T21:28:12.305066,16,EyesOpen
-16869.018002631426,537.3135849611265,7149.943071596989,3778.137717025008,23287.142609017206,13011.15161313434,9918.899526464884,10515.646399932672,0.0,0.0,0.0,2019-03-17T21:28:12.305711,16,EyesOpen
-16828.09195853376,570.103594077062,7083.1337074200765,3544.7855049116024,23327.263990314485,12526.811662532291,9935.149244683891,10333.323220410732,0.0,0.0,0.0,2019-03-17T21:28:12.312049,16,EyesOpen
-16684.459648663957,719.18972959396,7179.737946955914,3551.6251387149264,23482.250986367584,12171.910664070925,10070.332595149588,10336.56422335675,0.0,0.0,0.0,2019-03-17T21:28:12.312789,16,EyesOpen
-16718.344893258203,703.0964735861389,7257.186741493552,3785.916124095455,23462.313230313448,12616.643323498169,10073.953577751348,10522.553088969362,0.0,0.0,0.0,2019-03-17T21:28:12.318651,16,EyesOpen
-16859.71967693802,549.6293961560007,7163.3764700146285,3810.4806912518375,23298.698460900603,13030.217651154715,9935.529224339632,10540.27802232242,0.0,0.0,0.0,2019-03-17T21:28:12.327810,16,EyesOpen
-16842.75470289644,556.6701956594223,7077.679881772981,3588.304351366085,23300.888931857222,12650.483864603504,9920.240631132201,10363.922758570046,0.0,0.0,0.0,2019-03-17T21:28:12.328459,16,EyesOpen
-16697.93775057051,698.2684967837927,7157.095629822687,3535.6212896849265,23460.480387268115,12187.355719489542,10055.736906020273,10324.449577861975,0.0,0.0,0.0,2019-03-17T21:28:12.335843,16,EyesOpen
-16693.221532490435,715.4346365254685,7254.504532158916,3754.64603360248,23479.054686910473,12516.395749616117,10090.963255281837,10496.803879356847,0.0,0.0,0.0,2019-03-17T21:28:12.336551,16,EyesOpen
-16828.896621334152,579.5360302372015,7187.739871470913,3834.1511886300077,23321.161964078186,13020.159366149828,9961.457247907789,10558.919377198146,0.018000000000000002,1.024,0.17400000000000002,2019-03-17T21:28:12.342228,16,EyesOpen
-16857.57390947031,540.0181460402187,7079.088041673665,3623.8436250500235,23277.643117623702,12753.793627475934,9902.515697779143,10389.493154226919,0.0,0.0,0.0,2019-03-17T21:28:12.343033,16,EyesOpen
-16728.626695707644,671.1558307595052,7131.391123699084,3512.643696384871,23426.77395662951,12209.595705222573,10022.902193415428,10304.042435174279,0.0,0.0,0.0,2019-03-17T21:28:12.349135,16,EyesOpen
-16682.24682596288,725.5823285081779,7246.05557275481,3703.7734632222014,23483.54738754599,12401.418376138017,10090.896200048472,10457.218939926499,0.0,0.0,0.0,2019-03-17T21:28:12.350067,16,EyesOpen
-16798.297083174835,617.2657748777599,7218.339409630229,3845.1258951575633,23347.492319046538,12973.891255127342,9988.033472065148,10571.570464559849,0.0,0.0,0.0,2019-03-17T21:28:12.357199,16,EyesOpen
-16860.09965659376,546.3213379766153,7101.55154485125,3668.1224308159867,23268.523605885937,12858.198625826673,9904.974389669227,10434.800140237825,0.0,0.0,0.0,2019-03-17T21:28:12.357898,16,EyesOpen
-16749.145597117615,640.5562926001897,7118.36005668164,3504.0382747695776,23400.39889817225,12272.582921097628,10003.947914117327,10307.059920675745,0.0,0.0,0.0,2019-03-17T21:28:12.365246,16,EyesOpen
-16673.663756092043,718.9215086604963,7236.0419912388315,3654.599625420526,23491.996346950098,12314.671255906971,10096.864115818038,10427.334657589754,0.0,0.0,0.0,2019-03-17T21:28:12.365883,16,EyesOpen
-16788.529370847868,623.7924842587095,7229.805854535802,3828.9879356608317,23371.028705957975,12898.163544912763,10011.771024676684,10568.66473778066,0.0,0.0,0.0,2019-03-17T21:28:12.371777,16,EyesOpen
-16872.01313638844,541.4933611742689,7116.191937469475,3705.628658011992,23267.875405296734,12938.709609354688,9910.495270549687,10468.417163898608,0.0,0.0,0.0,2019-03-17T21:28:12.372538,16,EyesOpen
-16771.94437646203,627.7934465162094,7099.383425639085,3502.987742780178,23371.72161003609,12350.456398779917,9980.925617328361,10306.814051486737,0.012,1.026,0.178,2019-03-17T21:28:12.378859,16,EyesOpen
-16666.600604844167,728.1304273760828,7219.099368941709,3609.2926394096185,23494.566797562456,12238.965897436847,10097.579371640608,10389.001415848901,0.0,0.0,0.0,2019-03-17T21:28:12.379499,16,EyesOpen
-16753.88416694214,653.8108770621869,7244.5580058763035,3818.6614297224796,23405.271578463507,12799.72646233159,10040.425961068388,10551.23037710552,0.0,0.0,0.0,2019-03-17T21:28:12.388533,16,EyesOpen
-16870.224996832014,539.8393320845762,7126.1608154965415,3737.9716322388213,23266.914280285157,12979.970929619185,9914.965619440749,10483.146963494655,0.0,0.0,0.0,2019-03-17T21:28:12.394873,16,EyesOpen
-16797.76064130791,597.2609635902601,7085.9723789659,3515.9741063087117,23342.12790037726,12432.576707908716,9957.456285650289,10308.110452665145,0.0,0.0,0.0,2019-03-17T21:28:12.395730,16,EyesOpen
-16668.791075800786,710.226680067382,7198.580467531738,3563.3151010650517,23483.61444277936,12177.386841462476,10082.33548192209,10346.376639172631,0.0,0.0,0.0,2019-03-17T21:28:12.401382,16,EyesOpen
-16712.06405306626,679.9624180748962,7252.850503069223,3791.816984631656,23427.600971174357,12692.616902901758,10056.183940909379,10526.062312848844,0.0,0.0,0.0,2019-03-17T21:28:12.402132,16,EyesOpen
-16840.56423193982,556.6701956594223,7151.887673364601,3778.070661791642,23280.302975213883,13015.063168414017,9927.303782380079,10509.633780674194,0.0,0.0,0.0,2019-03-17T21:28:12.409555,16,EyesOpen
-16805.650807100632,586.9344576519081,7086.084137688177,3553.5473887380826,23315.395214008717,12544.447188907527,9937.317363896056,10330.931583754014,0.0,0.0,0.0,2019-03-17T21:28:12.410191,16,EyesOpen
-16674.803695059265,718.3403633046584,7173.635920719615,3542.5503304660715,23462.715561713645,12155.45978015182,10060.274310144701,10319.42043535953,0.0,0.0,0.0,2019-03-17T21:28:12.417492,16,EyesOpen
-16690.136991755604,719.3685435496025,7259.645433383636,3779.434118203416,23454.937154643198,12586.557875461325,10074.557074851642,10508.002103328956,0.006,1.02,0.18,2019-03-17T21:28:12.418128,16,EyesOpen
-16828.85191784524,579.3348645371037,7179.067394622254,3819.130816356041,23300.933635346133,13026.574316808501,9946.168654700357,10541.619126989739,0.0,0.0,0.0,2019-03-17T21:28:12.424722,16,EyesOpen
-16840.51952845091,556.6031404260565,7087.805222011236,3591.0983194229984,23292.104696286286,12665.593643855293,9920.888831721406,10365.979119059935,0.0,0.0,0.0,2019-03-17T21:28:12.425504,16,EyesOpen
-16699.25650349337,682.2869994982481,7162.147124069586,3522.992554067678,23447.44932025067,12181.879542097991,10053.278214130189,10317.207612658454,0.0,0.0,0.0,2019-03-17T21:28:12.432279,16,EyesOpen
-16671.24976769087,715.9487266479405,7265.076907286276,3738.530425850204,23476.21601536465,12483.248112588897,10097.244095473778,10491.595922898761,0.0,0.0,0.0,2019-03-17T21:28:12.433277,16,EyesOpen
-16810.009397269416,588.1861553414053,7208.437586836528,3831.714848484379,23324.492374002028,13002.680301985778,9975.695309125818,10567.368336602252,0.0,0.0,0.0,2019-03-17T21:28:12.440142,16,EyesOpen
-16853.19296755707,542.521541419213,7100.433957628484,3626.2576134511964,23277.531358901426,12772.636148051757,9919.190099142803,10409.117985858678,0.0,0.0,0.0,2019-03-17T21:28:12.440939,16,EyesOpen
-16724.715140427965,663.7574033447985,7138.834254602702,3498.8526700559464,23420.515468182024,12217.999961137768,10033.563975520608,10311.172641655523,0.0,0.0,0.0,2019-03-17T21:28:12.447324,16,EyesOpen
-16663.605471087154,724.7329622188762,7249.631851867659,3687.568448492104,23486.721335258644,12384.02871895179,10106.609476400552,10458.35887889372,0.0,0.0,0.0,2019-03-17T21:28:12.453772,16,EyesOpen
-16790.898655760127,608.615649773556,7210.471595581961,3826.395133304016,23338.171641608675,12948.007935048097,9994.202553534813,10564.350851100786,0.0,0.0,0.0,2019-03-17T21:28:12.454643,16,EyesOpen
-16854.846996646764,535.7266111047996,7096.812975026724,3665.4178697368948,23258.577079603325,12862.02077412853,9913.19983162878,10433.503739059417,0.008,1.024,0.18,2019-03-17T21:28:12.461832,16,EyesOpen
-16733.946410888006,637.2035309318937,7116.638972358582,3501.7136933462257,23392.084049234876,12276.896807777503,10010.541678731643,10304.288304363288,0.0,0.0,0.0,2019-03-17T21:28:12.462571,16,EyesOpen
-16659.805674529754,724.3306308186807,7236.466674383482,3647.7376398727465,23489.56000680447,12289.547895139205,10104.173136254924,10414.415349294586,0.0,0.0,0.0,2019-03-17T21:28:12.469883,16,EyesOpen
-16762.17666413506,639.5057606107904,7239.081828484754,3835.201720619407,23373.643860059245,12882.562027282958,10023.684504471363,10561.981566188522,0.0,0.0,0.0,2019-03-17T21:28:12.470678,16,EyesOpen
-16854.399961757656,538.8111518396321,7125.311449207241,3720.134940163486,23259.247631936985,12951.405400205304,9917.603125286476,10466.964300509013,0.0,0.0,0.0,2019-03-17T21:28:12.476985,16,EyesOpen
-16764.613004280687,618.3833621005252,7112.235678700886,3523.707809890248,23362.400932598226,12378.329024115685,9990.983902333248,10314.19012715699,0.0,0.0,0.0,2019-03-17T21:28:12.477619,16,EyesOpen
-16652.317840137224,737.8534362141414,7236.9807645059545,3630.9738315312666,23494.544445818003,12249.650031286483,10113.963200326349,10393.136488573133,0.0,0.0,0.0,2019-03-17T21:28:12.484470,16,EyesOpen
-16722.256448537883,672.2957697267258,7264.473410185982,3837.7721712317675,23403.282273206984,12805.381453678781,10053.613490297019,10555.767781229948,0.0,0.0,0.0,2019-03-17T21:28:12.485236,16,EyesOpen
-16833.009342313926,569.8353731435983,7150.1665890415425,3768.07943202012,23265.148492473185,13014.929057947285,9925.113311423458,10499.50844043594,0.0,0.0,0.0,2019-03-17T21:28:12.492529,16,EyesOpen
-16762.668402513078,625.0441819482068,7111.498071133861,3552.2733393041303,23340.205650354106,12486.332653323729,9971.180256745847,10331.065694220746,0.0,0.0,0.0,2019-03-17T21:28:12.493190,16,EyesOpen
-16636.559860296235,738.5239885478006,7220.105197442198,3592.3947206014063,23490.92346321624,12202.59960920806,10105.402482199965,10363.632185892127,0.006,1.024,0.17400000000000002,2019-03-17T21:28:12.500458,16,EyesOpen
-16692.036890034306,705.063427098206,7273.972901579488,3814.951040142899,23442.50958472605,12690.001748800487,10081.70963307734,10536.36646704274,0.0,0.0,0.0,2019-03-17T21:28:12.501097,16,EyesOpen
-16838.70903715003,547.5059804327465,7158.347327512184,3793.2921997657063,23272.88219605472,13018.795909738054,9935.68568655082,10513.947667354068,0.0,0.0,0.0,2019-03-17T21:28:12.506759,16,EyesOpen
-16813.585676382267,560.7605648947435,7077.702233517437,3559.224731829731,23294.60809166528,12562.417991449594,9933.383456871923,10329.366961642143,0.0,0.0,0.0,2019-03-17T21:28:12.513881,16,EyesOpen
-16677.284738693805,697.0167990942955,7168.852647406179,3544.5172839781385,23451.74085518609,12161.897082554948,10067.762144537228,10316.738226024894,0.0,0.0,0.0,2019-03-17T21:28:12.514608,16,EyesOpen
-16688.326500454725,698.8272903951753,7254.862160070201,3776.684853635413,23448.20927956215,12568.29650024134,10088.236342458289,10500.402510214151,0.0,0.0,0.0,2019-03-17T21:28:12.522082,16,EyesOpen
-16825.074473032295,565.4097277414475,7178.776821944335,3826.7751129597564,23293.289338742416,13027.803662753542,9964.273567709157,10541.999106645479,0.0,0.0,0.0,2019-03-17T21:28:12.523017,16,EyesOpen
-16824.448624187546,548.48945718878,7084.050128942744,3599.8154997605684,23280.817065336356,12687.028966787931,9933.271698149645,10367.588444660718,0.0,0.0,0.0,2019-03-17T21:28:12.529972,16,EyesOpen
-16679.095229994684,684.321008243681,7152.714687909447,3518.3657429654295,23439.469747480125,12187.087498556079,10062.956519479338,10307.842231731682,0.0,0.0,0.0,2019-03-17T21:28:12.530603,16,EyesOpen
-16663.33725015369,721.9836976508734,7252.090543757742,3721.3195826196174,23468.97405016113,12461.008126855866,10108.867002590538,10471.769925566903,0.0,0.0,0.0,2019-03-17T21:28:12.536711,16,EyesOpen
-16804.75673732242,589.6613704754557,7196.837031464223,3820.784845445734,23318.18918206563,12994.276046070581,9989.463983710288,10554.22551086253,0.006,1.026,0.176,2019-03-17T21:28:12.537346,16,EyesOpen
-16843.358199996735,542.6109483970342,7088.274608644797,3622.413113404884,23267.763646574458,12790.852819782833,9929.628363803431,10401.518392743874,0.0,0.0,0.0,2019-03-17T21:28:12.544554,16,EyesOpen
-16720.244791536905,657.5659701306785,7125.870242818623,3490.6495798408487,23412.6253023893,12224.459615285352,10043.13052214748,10298.65566476055,0.0,0.0,0.0,2019-03-17T21:28:12.545189,16,EyesOpen
-16664.544244354278,726.8116744532198,7240.937023274544,3674.7161954303024,23485.313175357962,12359.084172139666,10121.406331229966,10440.186910651555,0.0,0.0,0.0,2019-03-17T21:28:12.552643,16,EyesOpen
-16778.918120732083,608.8391672181091,7218.071188696765,3832.1842351179407,23350.867432459287,12936.161510486783,10021.315219559101,10560.260481865464,0.0,0.0,0.0,2019-03-17T21:28:12.553405,16,EyesOpen
-16848.00736284344,525.0201255107075,7103.250277429853,3674.1350500744643,23263.785036061414,12879.388079570304,9931.103578937482,10429.793349479836,0.0,0.0,0.0,2019-03-17T21:28:12.560711,16,EyesOpen
-16730.750111430898,630.9450424844077,7113.286210690286,3500.6855131012817,23387.948976510645,12293.347691696608,10023.639800982452,10291.011368156835,0.0,0.0,0.0,2019-03-17T21:28:12.561405,16,EyesOpen
-16643.377142355104,733.4054390675353,7232.979802248455,3640.2274537357634,23487.794218992498,12279.243740945309,10124.177947542423,10397.875058397658,0.0,0.0,0.0,2019-03-17T21:28:12.566686,16,EyesOpen
-16735.421626022056,655.3307956851478,7243.775694820368,3837.5486537872143,23382.00341248553,12867.474599775625,10052.205330396335,10551.453894550074,0.0,0.0,0.0,2019-03-17T21:28:12.574484,16,EyesOpen
-16844.6769529196,540.1522565069505,7115.45432990245,3720.5372715636818,23252.095073711287,12953.528815928557,9929.270735892145,10455.453152114529,0.0,0.0,0.0,2019-03-17T21:28:12.575013,16,EyesOpen
-16761.439056568033,621.8478824910978,7088.7663470228135,3512.21901324022,23345.592420767836,12375.244483380853,9987.988768576237,10287.65860648854,0.012,1.028,0.17200000000000001,2019-03-17T21:28:12.582128,16,EyesOpen
-16642.170148154517,733.8748257010968,7214.696075284014,3603.637648062426,23480.731067744622,12213.306094802154,10111.728025880817,10357.306642211275,0.0,0.0,0.0,2019-03-17T21:28:12.582732,16,EyesOpen
-16716.73556765742,664.5397144007343,7252.8281513247675,3824.294069325217,23404.91395055222,12769.395145105738,10068.969138737815,10534.108940852755,0.0,0.0,0.0,2019-03-17T21:28:12.588711,16,EyesOpen
-16841.301839506847,545.4496199428582,7142.522292437827,3771.923932066433,23266.8919285407,13007.485927043668,9949.052029735092,10492.1770682546,0.0,0.0,0.0,2019-03-17T21:28:12.589305,16,EyesOpen
-16779.14163817664,594.1540711109724,7089.749823778847,3546.193664812287,23327.37574903676,12486.891446935111,9985.59713191952,10317.252316147365,0.0,0.0,0.0,2019-03-17T21:28:12.596814,16,EyesOpen
-16643.01951444382,723.7494854628427,7195.85355470819,3575.6756157488367,23476.953622931676,12184.092364799068,10118.277087006223,10342.62154610414,0.0,0.0,0.0,2019-03-17T21:28:12.597452,16,EyesOpen
-16688.192389987995,696.9273921164743,7261.38886945115,3806.725598183346,23441.771977159024,12668.991109012499,10107.883525834504,10528.27513554992,0.0,0.0,0.0,2019-03-17T21:28:12.604748,16,EyesOpen
-16827.086130033273,558.4359834713916,7162.4376967475055,3806.524432483248,23284.013364793464,13034.7774070236,9973.59424514702,10525.615277959738,0.0,0.0,0.0,2019-03-17T21:28:12.605442,16,EyesOpen
-16817.050196772838,562.4369457288916,7083.223114397898,3575.0944703929986,23303.32527200285,12604.618084981214,9971.001442790204,10344.09676123819,0.0,0.0,0.0,2019-03-17T21:28:12.611924,16,EyesOpen
-16676.34596542668,705.4881102428568,7177.882752166123,3550.1946270697867,23467.476483282626,12189.836763124082,10114.90197359347,10330.66336282055,0.0,0.0,0.0,2019-03-17T21:28:12.612534,16,EyesOpen
-16675.854227048665,718.9662121494069,7266.552122420326,3776.394280957494,23465.73304721511,12569.72701188648,10136.069075592646,10509.902001607657,0.01,1.024,0.168,2019-03-17T21:28:12.619575,16,EyesOpen
-16805.56140012281,598.2667920907488,7193.394862818106,3834.620575263569,23309.024966838955,13042.041723971573,10004.529059473165,10555.834836463313,0.0,0.0,0.0,2019-03-17T21:28:12.620368,16,EyesOpen
-16822.571077653298,579.1560505814613,7088.565181322716,3609.113825453976,23279.006574035477,12717.673208436157,9957.098657739003,10374.763354630872,0.0,0.0,0.0,2019-03-17T21:28:12.626571,16,EyesOpen
-16673.082610736205,694.4463484819352,7152.044135575788,3518.2986877320636,23433.948866599665,12199.000978350758,10079.586217354086,10301.114356650634,0.0,0.0,0.0,2019-03-17T21:28:12.627290,16,EyesOpen
-16650.61910755862,731.9078721890297,7265.166314264097,3728.9638792233327,23478.920576443743,12453.006202340866,10135.53263372572,10468.998309254446,0.0,0.0,0.0,2019-03-17T21:28:12.634774,16,EyesOpen
-16792.396222638636,603.810024715665,7217.847671252212,3843.42716257896,23329.8567926713,12991.683243713767,10017.336609046055,10557.824141719835,0.0,0.0,0.0,2019-03-17T21:28:12.641574,16,EyesOpen
-16843.358199996735,543.2367972417828,7112.056864745244,3654.5549219316154,23270.289393697905,12814.277447971994,9950.63900359142,10408.11215735819,0.0,0.0,0.0,2019-03-17T21:28:12.642327,16,EyesOpen
-16714.053358322784,669.0100632917957,7147.059696562254,3515.571774908516,23416.15687801324,12240.105836404067,10063.001222968249,10298.834478716193,0.0,0.0,0.0,2019-03-17T21:28:12.649195,16,EyesOpen
-16634.99523818436,755.9136457340295,7265.635700897658,3692.821108439101,23496.869027241355,12346.611898733605,10147.870796665049,10437.571756550284,0.0,0.0,0.0,2019-03-17T21:28:12.649827,16,EyesOpen
-16757.527501288354,629.939213983919,7249.0730582562755,3856.7264505298676,23364.680810532667,12927.869013293865,10049.433714083876,10567.323633113341,0.0,0.0,0.0,2019-03-17T21:28:12.657174,16,EyesOpen
-16842.642944174164,535.4136866824254,7127.054885274754,3702.2982480881515,23265.439065151106,12896.21894314515,9950.169616957857,10445.283108387364,0.004,1.028,0.166,2019-03-17T21:28:12.658062,16,EyesOpen
-16731.532422486835,638.7905047882206,7124.238565473386,3516.6893621312815,23382.0704677189,12304.881191835546,10033.206347609324,10299.415624072031,0.0,0.0,0.0,2019-03-17T21:28:12.665159,16,EyesOpen
-16625.71926423541,745.7883054957755,7251.19647397953,3656.208951021308,23497.36076561937,12264.201016926887,10144.249814063289,10411.353160304208,0.0,0.0,0.0,2019-03-17T21:28:12.666007,16,EyesOpen
-16723.3963875051,673.1674877604828,7264.562817163804,3860.2803778982616,23392.262863190517,12849.056762344451,10073.886522517983,10572.375127360241,0.0,0.0,0.0,2019-03-17T21:28:12.671714,16,EyesOpen
-16838.23965051647,561.229951528305,7144.913929094545,3760.211617971852,23263.60622210577,12971.700784170722,9952.807122803584,10488.511382163928,0.0,0.0,0.0,2019-03-17T21:28:12.672348,16,EyesOpen
-16759.762675733888,622.0713999356509,7110.246373444364,3538.07998157501,23344.25131610052,12400.658416826536,9999.298751270622,10309.071577676723,0.0,0.0,0.0,2019-03-17T21:28:12.679946,16,EyesOpen
-16639.28677311978,741.5638257937225,7226.654258567603,3611.1925376883196,23479.7922944775,12208.411062766441,10120.489909707298,10364.012165547869,0.0,0.0,0.0,2019-03-17T21:28:12.680582,16,EyesOpen
-16699.524724426832,690.9147728579966,7279.58318943777,3842.3766305895606,23421.029558304497,12755.24649086553,10091.56675238213,10545.351868313774,0.0,0.0,0.0,2019-03-17T21:28:12.688041,16,EyesOpen
-16827.644923644653,564.7838788966989,7176.429888776528,3799.170708557452,23278.55953914637,13023.690941773766,9967.82749507755,10508.359731240242,0.0,0.0,0.0,2019-03-17T21:28:12.688794,16,EyesOpen
-16784.863684757198,594.8469751890868,7109.151137966053,3560.1411533523983,23322.972455379066,12510.025502446355,9985.954759830805,10318.548717325773,0.0,0.0,0.0,2019-03-17T21:28:12.695066,16,EyesOpen
-16653.86011050464,712.7747789352869,7204.391921090117,3573.3286825810296,23472.751494974076,12174.637576894473,10114.231421259812,10327.020028474335,0.004,1.018,0.17400000000000002,2019-03-17T21:28:12.701218,16,EyesOpen
-16681.799791073776,696.9720956053849,7276.319834747295,3803.775167915245,23441.369645758827,12632.714227761535,10108.755243868261,10507.622123673216,0.0,0.0,0.0,2019-03-17T21:28:12.701914,16,EyesOpen
-16813.742138593454,578.8207744146317,7188.90216218259,3822.975316402354,23290.98710906352,13021.768691750609,9981.909094084394,10518.552126711862,0.0,0.0,0.0,2019-03-17T21:28:12.709381,16,EyesOpen
-16803.236818699457,579.9607133818523,7107.050073987255,3595.9709997142554,23303.794658636412,12616.017474653421,9973.370727702466,10341.056923992268,0.0,0.0,0.0,2019-03-17T21:28:12.710166,16,EyesOpen
-16666.66766007753,710.1149213451054,7184.878848180634,3550.373441025429,23457.395846533283,12167.619129135506,10103.144956009979,10303.684807262995,0.0,0.0,0.0,2019-03-17T21:28:12.717446,16,EyesOpen
-16648.29452613527,728.0186686538063,7288.434480242072,3781.915161837955,23472.818550207445,12523.213031674986,10139.801816916683,10480.59886462675,0.0,0.0,0.0,2019-03-17T21:28:12.718171,16,EyesOpen
-16786.808286524807,610.8508242190867,7228.509453357394,3862.5602558327028,23322.346606534316,13019.064130671517,10016.241373567746,10538.579289743817,0.0,0.0,0.0,2019-03-17T21:28:12.723996,16,EyesOpen
-16818.70422586253,579.133698837006,7122.830405572701,3645.4801136827605,23289.020155551454,12728.849080663811,9964.273567709157,10364.1462760146,0.0,0.0,0.0,2019-03-17T21:28:12.724846,16,EyesOpen
-16672.032078746804,706.2927730432478,7183.604798746682,3550.8875311479014,23443.26954403753,12201.16909756292,10089.08570874759,10286.049280887757,0.0,0.0,0.0,2019-03-17T21:28:12.732127,16,EyesOpen
-16640.449063831456,749.8563229866413,7289.417956998105,3743.4031061414607,23486.386059091816,12415.298809444763,10140.606479717075,10434.241346626442,0.0,0.0,0.0,2019-03-17T21:28:12.732766,16,EyesOpen
-16767.585786293243,635.8847780090306,7252.090543757742,3870.00338673632,23347.738188235544,12978.47336274068,10033.36280982051,10537.484054265506,0.006,1.018,0.17200000000000001,2019-03-17T21:28:12.741587,16,EyesOpen
-16821.453490430533,579.2007540703719,7138.923661580523,3689.244829326252,23280.682954869626,12837.389151738782,9960.429067662844,10394.321131029265,0.0,0.0,0.0,2019-03-17T21:28:12.742492,16,EyesOpen
-16689.086459766204,683.0022553208179,7165.209313059964,3538.504664719661,23419.889619337275,12258.434266857419,10069.505580604742,10273.50995224833,0.0,0.0,0.0,2019-03-17T21:28:12.747998,16,EyesOpen
-16620.57836301069,754.6395963000771,7278.10797430372,3701.0689021431094,23501.94287323271,12333.089093338143,10157.906729925482,10402.591276477728,0.0,0.0,0.0,2019-03-17T21:28:12.748779,16,EyesOpen
-16737.5003382564,656.5377898857344,7261.098296773232,3866.8741425125772,23374.023839714988,12917.855431777887,10064.23056891329,10537.729923454515,0.0,0.0,0.0,2019-03-17T21:28:12.754109,16,EyesOpen
-16834.775130125898,561.1628962949391,7134.3192022227295,3717.229213384296,23269.820007064343,12918.257763178082,9961.16667522987,10421.500852286918,0.0,0.0,0.0,2019-03-17T21:28:12.761774,16,EyesOpen
-16738.59557373471,638.0081937322848,7120.863452060635,3519.4609784437394,23378.96357523961,12325.578907201161,10036.782626722174,10264.1222195771,0.0,0.0,0.0,2019-03-17T21:28:12.762537,16,EyesOpen
-16636.179880640495,742.48024731639,7242.926328531066,3640.4286194358615,23499.46182959817,12250.544101064695,10152.743476956306,10357.664270122561,0.0,0.0,0.0,2019-03-17T21:28:12.769678,16,EyesOpen
-16722.390559004612,670.1276505145611,7263.288767729851,3844.0306596792534,23402.96934878461,12822.7264073761,10088.258694202745,10519.1332720677,0.0,0.0,0.0,2019-03-17T21:28:12.770461,16,EyesOpen
-16838.776092383396,556.0219950702185,7143.148141282576,3750.466257389338,23270.40115242018,12970.560845203501,9964.966471787271,10440.857462985214,0.0,0.0,0.0,2019-03-17T21:28:12.776880,16,EyesOpen
-16764.635356025145,612.0131149307626,7106.915963520523,3532.2014727832643,23351.00154292602,12411.878992543101,10015.235545067257,10265.12804807759,0.01,1.016,0.176,2019-03-17T21:28:12.777765,16,EyesOpen
-16640.069084175717,734.47832280139,7225.514319600382,3602.207136417286,23495.729088274133,12194.195353292866,10149.658936221473,10319.643952804083,0.0,0.0,0.0,2019-03-17T21:28:12.784218,16,EyesOpen
-16697.334253470213,693.8652031260972,7276.29748300284,3828.272679838262,23436.362855000836,12722.165909071675,10122.233345774812,10499.88842009168,0.0,0.0,0.0,2019-03-17T21:28:12.785088,16,EyesOpen
-16821.744063108454,571.6011609555675,7170.663138707058,3792.9122201099663,23290.674184641146,13012.470366057201,9990.715681399784,10470.361765666219,0.0,0.0,0.0,2019-03-17T21:28:12.792500,16,EyesOpen
-16781.80149576682,598.8032339576762,7106.31246642023,3564.499743521183,23335.265914829484,12524.218860175475,10007.83711765255,10287.725661721905,0.0,0.0,0.0,2019-03-17T21:28:12.793187,16,EyesOpen
-16653.167206426526,726.1187703751052,7203.14022340062,3567.2043046002755,23480.820474722444,12167.350908202043,10134.86208139206,10286.786888454782,0.0,0.0,0.0,2019-03-17T21:28:12.801010,16,EyesOpen
-16675.429543904014,710.740770189854,7281.617198183203,3801.56234521417,23460.569794245934,12618.431463054594,10140.114741339057,10473.111030234222,0.0,0.0,0.0,2019-03-17T21:28:12.801643,16,EyesOpen
-16803.75090882193,581.7265011938216,7202.894354211611,3838.643889265524,23310.164905806174,13038.308982647537,10014.430882266866,10500.044882302867,0.0,0.0,0.0,2019-03-17T21:28:12.807416,16,EyesOpen
-16792.195056938537,575.3115505351485,7111.743940322869,3604.956400985289,23307.37093774926,12647.242861657485,9993.889629112438,10316.626467302618,0.0,0.0,0.0,2019-03-17T21:28:12.808115,16,EyesOpen
-16658.732790795897,707.3656567771026,7187.605761004182,3547.825342157524,23466.26948908204,12184.002957821245,10126.860156877061,10273.331138292688,0.0,0.0,0.0,2019-03-17T21:28:12.814217,16,EyesOpen
-16655.76000878334,731.8631687001191,7285.796974396346,3766.1795337414187,23484.664974768755,12520.106139195697,10162.82411370565,10450.133436934166,0.012,1.022,0.176,2019-03-17T21:28:12.821872,16,EyesOpen
-16786.60712082471,624.7089057813771,7230.029371980354,3852.0549359387087,23340.228002098564,13031.268183144115,10044.739847748262,10520.608487201749,0.0,0.0,0.0,2019-03-17T21:28:12.822684,16,EyesOpen
-16815.731443849974,573.8363354010983,7118.382408426096,3634.3265931995625,23298.74316438951,12761.81790373539,9990.916847099883,10349.729400840926,0.0,0.0,0.0,2019-03-17T21:28:12.829964,16,EyesOpen
-16686.15838124256,686.2209065223822,7158.906121123568,3512.800158596058,23443.87304113782,12211.1826790789,10103.390825198989,10253.92982410548,0.0,0.0,0.0,2019-03-17T21:28:12.830733,16,EyesOpen
-16630.27902010429,749.0740119307056,7281.103108060731,3716.491605817271,23509.07307971395,12412.907172788046,10178.403279590999,10414.72827371696,0.0,0.0,0.0,2019-03-17T21:28:12.836665,16,EyesOpen
-16749.726742473453,634.3201558971591,7248.827189067268,3858.201665663918,23370.827540257877,12978.071031340485,10073.66300507343,10524.810615159347,0.0,0.0,0.0,2019-03-17T21:28:12.837479,16,EyesOpen
-16812.110461248216,562.101669562062,7133.738056866891,3685.3779775354838,23293.982242820533,12855.047029858475,9991.475640711265,10380.77597388935,0.0,0.0,0.0,2019-03-17T21:28:12.844621,16,EyesOpen
-16697.24484649239,665.1208597565723,7153.385240243107,3523.1043127899547,23422.571828671913,12264.603348327084,10087.85636280255,10250.353544992631,0.0,0.0,0.0,2019-03-17T21:28:12.845275,16,EyesOpen
-16616.91267692002,747.0847066741833,7272.564741678803,3678.381881520973,23513.051690226996,12312.503136694806,10180.660805780984,10372.729345885438,0.0,0.0,0.0,2019-03-17T21:28:12.852666,16,EyesOpen
-16729.31959978576,656.7613073302874,7267.870875343189,3859.073383697675,23396.710860337123,12903.818536259954,10097.042929773681,10516.249897032965,0.0,0.0,0.0,2019-03-17T21:28:12.853396,16,EyesOpen
-16822.86165033122,567.8907713759866,7151.977080342422,3728.0027542117546,23293.356393975784,12938.508443654591,9997.152983802913,10412.761320204892,0.008,1.026,0.176,2019-03-17T21:28:12.859226,16,EyesOpen
-16726.011541606375,652.2015514614047,7137.470798190928,3525.2053767687535,23400.91298829472,12350.456398779917,10071.718403305818,10254.712135161417,0.0,0.0,0.0,2019-03-17T21:28:12.860083,16,EyesOpen
-16624.10993863463,752.2032561544486,7251.218825723985,3629.565671630582,23521.56770486447,12242.743342249792,10183.477125582353,10342.062752492757,0.0,0.0,0.0,2019-03-17T21:28:12.867348,16,EyesOpen
-16704.39740471809,683.0246070652732,7278.48795395946,3840.074400910664,23434.30649451095,12816.736139862078,10129.564717956153,10511.421920230618,0.0,0.0,0.0,2019-03-17T21:28:12.868104,16,EyesOpen
-16820.402958441133,564.7391754077883,7163.130600825621,3759.3175481936396,23300.643062668212,12996.086537371462,10008.753539175217,10445.953660721025,0.0,0.0,0.0,2019-03-17T21:28:12.874170,16,EyesOpen
-16756.32050708777,611.6331352750225,7108.4358821434835,3527.351144236463,23362.53504306496,12442.523234191327,10043.622260525497,10259.942443363958,0.0,0.0,0.0,2019-03-17T21:28:12.874657,16,EyesOpen
-16632.693008505466,732.5337210337784,7217.288877640829,3581.442365818306,23507.351995390894,12197.03402483869,10172.34595684361,10301.024949672812,0.0,0.0,0.0,2019-03-17T21:28:12.883822,16,EyesOpen
-16683.699689352477,694.3792932485692,7276.5433521918485,3816.0239238767535,23460.569794245934,12717.717911925069,10152.810532189671,10490.478335675996,0.0,0.0,0.0,2019-03-17T21:28:12.889809,16,EyesOpen
-16811.32815019228,567.6672539314335,7175.245246320396,3797.851955634589,23313.964702363577,13039.67243905931,10025.763216705707,10478.564855881317,0.0,0.0,0.0,2019-03-17T21:28:12.890199,16,EyesOpen
-16786.13773419115,584.9228006509305,7101.5068413623385,3561.549313253083,23347.492319046538,12564.384944961661,10033.675734242885,10293.179487369,0.0,0.0,0.0,2019-03-17T21:28:12.896578,16,EyesOpen
-16644.830005744698,721.1566831060271,7199.809813476779,3556.0731358615326,23502.70283254419,12184.047661310156,10164.321680584155,10285.60224599865,0.008,1.03,0.17,2019-03-17T21:28:12.896949,16,EyesOpen
-16655.96117448344,720.5755377501891,7281.237218527463,3784.597371172592,23487.07896316993,12607.032073382386,10171.027203920747,10467.612501098216,0.0,0.0,0.0,2019-03-17T21:28:12.904619,16,EyesOpen
-16801.783955309864,591.3377513096036,7195.227705863441,3815.3086680541837,23328.113356603786,13034.889165745875,10035.732094732773,10492.489992676974,0.0,0.0,0.0,2019-03-17T21:28:12.905017,16,EyesOpen
-16798.78882155285,580.1618790819501,7106.826556542702,3589.9807322002334,23323.307731545894,12667.202969456073,10011.547507232131,10312.42433934502,0.0,0.0,0.0,2019-03-17T21:28:12.911817,16,EyesOpen
-16657.950479739964,711.8136539237087,7178.821525433246,3526.07709480251,23480.775771233533,12185.36641423302,10141.411142517465,10261.171789309,0.0,0.0,0.0,2019-03-17T21:28:12.912145,16,EyesOpen
-16628.513232292324,751.4656485874234,7286.065195329809,3749.527484122215,23514.057518727484,12498.782574985335,10192.484878597841,10442.243271141442,0.0,0.0,0.0,2019-03-17T21:28:12.919582,16,EyesOpen
-16768.41280083809,612.840129475609,7225.089636455731,3837.7051159984017,23361.43980758665,13018.348874848947,10072.299548661656,10513.724149909514,0.0,0.0,0.0,2019-03-17T21:28:12.920329,16,EyesOpen
-16806.388414667657,560.8723236170201,7115.096701991165,3630.0574100085987,23318.412699510183,12782.828543523377,10020.778777692172,10348.567110129252,0.0,0.0,0.0,2019-03-17T21:28:12.927701,16,EyesOpen
-16669.05929673425,692.3676362475916,7166.03632760481,3514.8788708304014,23474.49493104159,12234.316734590142,10147.267299564755,10258.735449163372,0.0,0.0,0.0,2019-03-17T21:28:12.928337,16,EyesOpen
-16623.126461878594,755.0195759558172,7276.699814403036,3705.338085334073,23536.141042249328,12405.195820950965,10217.83175681016,10406.43577652404,0.0,0.0,0.0,2019-03-17T21:28:12.935626,16,EyesOpen
-16749.011486650885,641.0927344671172,7243.060438997798,3848.746877759323,23397.023784759498,12978.115734829395,10112.130357281012,10520.004990101455,0.002,1.034,0.166,2019-03-17T21:28:12.936441,16,EyesOpen
-16817.7207491065,563.7333469072994,7124.88676606259,3681.689939700358,23316.557504720393,12886.764155240555,10027.774873706685,10384.978101846946,0.0,0.0,0.0,2019-03-17T21:28:12.941963,16,EyesOpen
-16706.431413463524,664.6738248674661,7137.068466790733,3510.7214463617142,23441.704921925655,12299.695587121914,10119.439377717898,10247.470169957896,0.0,0.0,0.0,2019-03-17T21:28:12.949071,16,EyesOpen
-16618.052615887238,751.1527241650491,7264.674575886081,3662.3109772576067,23543.338303963938,12324.72954091186,10220.40220742252,10366.113229526667,0.0,0.0,0.0,2019-03-17T21:28:12.949941,16,EyesOpen
-16723.888125883117,663.2433132223265,7269.077869543776,3847.6739940254683,23430.082014808897,12910.859335763376,10137.745456426795,10512.159527797643,0.0,0.0,0.0,2019-03-17T21:28:12.957099,16,EyesOpen
-16807.573057123787,569.6342074435005,7153.7428681543915,3726.21461465533,23321.38548152274,12969.197388791728,10032.93812667586,10412.984837649446,0.0,0.0,0.0,2019-03-17T21:28:12.957773,16,EyesOpen
-16707.817221619753,649.6534525934998,7133.246318488875,3520.176234266309,23424.091747294875,12385.481582341383,10102.653217631963,10251.717001404406,0.0,0.0,0.0,2019-03-17T21:28:12.965136,16,EyesOpen
-16615.19159259696,762.3732998816133,7244.893282043134,3612.623049333459,23548.412149955293,12250.94643246489,10218.904640544015,10324.628391817618,0.0,0.0,0.0,2019-03-17T21:28:12.965986,16,EyesOpen
-16699.077689537728,685.773871633276,7276.476296958483,3827.1327408710413,23468.236442594105,12815.573849150402,10170.11078239808,10499.9778270695,0.0,0.0,0.0,2019-03-17T21:28:12.971720,16,EyesOpen
-16816.066720016806,560.6935096613777,7163.264711292352,3757.015318514743,23333.433071784148,13019.95820044973,10046.706801260329,10445.283108387364,0.0,0.0,0.0,2019-03-17T21:28:12.972416,16,EyesOpen
-16751.045495396316,605.8216817166426,7111.855699045146,3525.2947837465745,23399.68364234968,12481.348214310196,10083.94480752287,10265.753896922339,0.004,1.03,0.17200000000000001,2019-03-17T21:28:12.980485,16,EyesOpen
-16614.29752281875,727.1245988755941,7224.24027016643,3567.2266563447306,23552.346056979426,12207.360530777041,10216.915335287493,10300.041472916779,0.0,0.0,0.0,2019-03-17T21:28:12.981125,16,EyesOpen
-16662.57729084221,691.1829937914603,7284.612331940214,3795.9073538669772,23506.145001190307,12709.380711243239,10199.905657757005,10481.336472193774,0.0,0.0,0.0,2019-03-17T21:28:12.988441,16,EyesOpen
-16793.08912671675,579.2007540703719,7195.384168074628,3791.9957985872984,23363.250298887528,13051.272994431614,10077.351042908555,10475.569722124306,0.0,0.0,0.0,2019-03-17T21:28:12.989079,16,EyesOpen
-16771.162065406093,593.8411466885981,7122.36101893914,3559.582359741016,23393.58161611338,12591.743480174957,10081.62022609952,10290.117298378624,0.0,0.0,0.0,2019-03-17T21:28:12.995050,16,EyesOpen
-16628.6249910146,726.1634738640158,7218.80879626379,3545.6795746898147,23556.592888425934,12192.608379436539,10223.374989435077,10278.94142615097,0.0,0.0,0.0,2019-03-17T21:28:12.995748,16,EyesOpen
-16642.348962110158,717.4909970153567,7297.39752976865,3765.017243029743,23542.98067605265,12588.368366762206,10232.06981802819,10450.44636135654,0.0,0.0,0.0,2019-03-17T21:28:13.001496,16,EyesOpen
-16779.49926608792,588.8790594195199,7216.663028796081,3808.066702850664,23386.7196305656,13034.710351790232,10101.42387168692,10482.521114649906,0.0,0.0,0.0,2019-03-17T21:28:13.009414,16,EyesOpen
-16788.395260381134,571.6011609555675,7126.183167240998,3587.0303019321327,23378.53889209496,12694.94148432511,10075.741717307774,10309.496260821374,0.0,0.0,0.0,2019-03-17T21:28:13.010302,16,EyesOpen
-16653.636593060088,705.7786829207759,7203.207278633986,3517.7845976095914,23544.18767025324,12211.830879668103,10214.993085264336,10261.775286409294,0.0,0.0,0.0,2019-03-17T21:28:13.017475,16,EyesOpen
-16622.81353745622,749.1187154196163,7311.076797375298,3735.021201970721,23581.76095268261,12502.023577931355,10269.50898999083,10435.1130646602,0.0,0.0,0.0,2019-03-17T21:28:13.018282,16,EyesOpen
-16751.224309351957,620.842053990609,7256.829113582267,3835.2240723638624,23431.289009009484,13029.904726732342,10149.301308310189,10515.154661554654,0.01,1.028,0.17400000000000002,2019-03-17T21:28:13.024093,16,EyesOpen
-16799.28055993087,551.7751636237101,7136.599080157171,3628.67160185237,23372.682735047667,12811.706997359634,10078.334519664588,10352.121037497645,0.0,0.0,0.0,2019-03-17T21:28:13.024957,16,EyesOpen
-16666.48884612189,670.9099615704968,7179.670891722548,3500.640809612371,23519.31017867448,12251.169949909443,10194.049500709712,10252.49931246034,0.0,0.0,0.0,2019-03-17T21:28:13.032171,16,EyesOpen
-16602.071118601696,753.3878986105799,7303.901887405144,3689.8036229376344,23598.010670901618,12399.0267394813,10280.03666162928,10403.708863700493,0.0,0.0,0.0,2019-03-17T21:28:13.033105,16,EyesOpen
-16718.45665198048,655.2190369628712,7287.830983141778,3853.1278196725634,23470.35985831736,12990.118621601894,10185.265265138778,10533.237222818998,0.0,0.0,0.0,2019-03-17T21:28:13.040045,16,EyesOpen
-16801.89571403214,563.0404428291849,7167.623301461137,3688.9989601372436,23381.95870899662,12925.678542337244,10090.918551792927,10402.01013112189,0.0,0.0,0.0,2019-03-17T21:28:13.040802,16,EyesOpen
-16691.075765022728,659.1976474759159,7174.8205631757455,3511.9731440512114,23506.7484982906,12333.781997416258,10181.800744748205,10265.060992844225,0.0,0.0,0.0,2019-03-17T21:28:13.047135,16,EyesOpen
-16600.66295870101,748.1128869191274,7290.848468643245,3644.943671815833,23606.213761116716,12319.58863968714,10277.55561799474,10371.790572618314,0.0,0.0,0.0,2019-03-17T21:28:13.047834,16,EyesOpen
-16697.78128835932,665.7690603457762,7303.007817626932,3835.358182830594,23498.903035986787,12905.226696160638,10203.750157803317,10526.285830293398,0.0,0.0,0.0,2019-03-17T21:28:13.054821,16,EyesOpen
-16801.068699487292,566.1473353084726,7185.392938303106,3716.4469023283605,23380.34938339584,12989.470421012691,10093.243133216278,10433.63784952615,0.0,0.0,0.0,2019-03-17T21:28:13.055760,16,EyesOpen
-16699.815297104753,656.6271968635556,7167.46683924995,3510.386170194885,23482.385096834314,12420.439710669483,10166.780372474239,10273.778173181794,0.01,1.022,0.182,2019-03-17T21:28:13.062420,16,EyesOpen
-16584.86027537111,766.1283929501049,7281.751308649935,3597.4238631038506,23612.136973397373,12264.46923786035,10289.759670467338,10341.660421092562,0.0,0.0,0.0,2019-03-17T21:28:13.069399,16,EyesOpen
-16651.803750014755,698.3132002727033,7325.650134760158,3822.8859094245327,23542.198364996715,12822.704055631644,10252.007574082325,10520.094397079278,0.0,0.0,0.0,2019-03-17T21:28:13.069862,16,EyesOpen
-16779.70043178802,572.294065033682,7213.7349502724355,3766.358347697061,23400.600063872345,13052.43528514329,10127.217784788345,10470.093544732756,0.0,0.0,0.0,2019-03-17T21:28:13.076655,16,EyesOpen
-16731.42066376456,615.8129114881649,7152.781743142813,3529.9439465932783,23455.317134298937,12521.491947351928,10154.598671746096,10283.590588997673,0.0,0.0,0.0,2019-03-17T21:28:13.077339,16,EyesOpen
-16599.99240636735,745.5647880512224,7261.500628173427,3562.4880865202053,23607.08547915047,12225.487795530296,10290.94431292347,10309.965647454936,0.0,0.0,0.0,2019-03-17T21:28:13.084308,16,EyesOpen
-16640.33730510918,723.8835959295745,7335.5966610427695,3795.326208511139,23574.18371131226,12715.974475857554,10286.31750182122,10496.334492723287,0.0,0.0,0.0,2019-03-17T21:28:13.084950,16,EyesOpen
-16782.494399844934,591.6059722430673,7236.779598805857,3790.6099904310695,23418.459107692135,13073.535331909101,10151.000040888792,10491.17123975411,0.0,0.0,0.0,2019-03-17T21:28:13.092263,16,EyesOpen
-16757.46044605499,596.5010042787795,7147.752600640369,3550.0381648585994,23434.44060497768,12628.713265504035,10142.059343106668,10303.818917729726,0.0,0.0,0.0,2019-03-17T21:28:13.092904,16,EyesOpen
-16615.03513038577,732.3325553336806,7243.686287842547,3525.3618389799403,23603.39744131535,12217.910554159947,10286.272798332311,10291.123126879113,0.0,0.0,0.0,2019-03-17T21:28:13.100425,16,EyesOpen
-16612.174107095492,752.1138491766274,7344.671469291624,3761.485667405804,23615.15445889884,12617.582096765293,10320.04628420428,10488.041995530368,0.008,1.02,0.186,2019-03-17T21:28:13.101169,16,EyesOpen
-16759.829730967253,601.5972020145896,7261.00888979541,3810.1454150850077,23448.58925921789,13081.045518046085,10179.051480180202,10527.31401053834,0.0,0.0,0.0,2019-03-17T21:28:13.106836,16,EyesOpen
-16769.865664227684,571.198829555372,7164.382298515117,3593.512307824172,23430.752567142557,12762.62256653578,10143.847482663094,10356.85960732217,0.0,0.0,0.0,2019-03-17T21:28:13.107502,16,EyesOpen
-16634.458796317434,706.7845114212646,7228.688267313036,3508.776844594103,23590.366374297904,12254.52271157774,10275.208684826934,10292.37482456861,0.0,0.0,0.0,2019-03-17T21:28:13.114986,16,EyesOpen
-16602.741670935353,747.8893694745743,7334.993163942477,3714.3905418384725,23629.05724395004,12508.036197189833,10327.623525574629,10456.235463170466,0.0,0.0,0.0,2019-03-17T21:28:13.115486,16,EyesOpen
-16745.703428471497,616.7516847552878,7279.225561526485,3822.5506332577033,23476.283070598016,13048.031991485595,10206.16414620449,10541.462664778552,0.0,0.0,0.0,2019-03-17T21:28:13.121747,16,EyesOpen
-16795.301949417826,564.6944719188776,7169.65731020657,3629.252747208208,23421.610703660335,12864.792390440989,10141.411142517465,10388.777898404349,0.0,0.0,0.0,2019-03-17T21:28:13.122124,16,EyesOpen
-16654.128331438103,692.479394969868,7208.594049047715,3487.0062454946337,23569.646307187835,12293.593560885616,10255.047411328247,10275.901588905048,0.0,0.0,0.0,2019-03-17T21:28:13.130020,16,EyesOpen
-16586.156676549515,767.156573195049,7334.367315097727,3670.245846539241,23655.991096018686,12417.265762956831,10346.600156617184,10422.372570320675,0.0,0.0,0.0,2019-03-17T21:28:13.136528,16,EyesOpen
-16708.59953267569,646.9488915144076,7319.816329457322,3833.2124153628847,23529.457870657192,13000.556886262524,10253.03575432727,10551.23037710552,0.0,0.0,0.0,2019-03-17T21:28:13.137185,16,EyesOpen
-16780.169818421582,566.4826114753022,7204.1684036455645,3678.471288498794,23438.374512001814,12961.463685210192,10161.840636949615,10429.525128546373,0.01,1.026,0.18,2019-03-17T21:28:13.144703,16,EyesOpen
-16675.004860759364,673.9721505608738,7204.213107134475,3491.476594385695,23557.866937859886,12365.856750709623,10251.068800815201,10284.238789586878,0.0,0.0,0.0,2019-03-17T21:28:13.145354,16,EyesOpen
-16586.782525394265,765.6143028276329,7322.811463214334,3622.6142791049815,23666.71993335723,12329.065779336188,10359.027726534334,10387.839125137225,0.0,0.0,0.0,2019-03-17T21:28:13.152728,16,EyesOpen
-16678.44702940548,676.6543598955107,7339.239995388984,3829.7031914834015,23570.227452543673,12918.481280622636,10298.119222893623,10554.203159118077,0.0,0.0,0.0,2019-03-17T21:28:13.153371,16,EyesOpen
-16789.08816445925,565.5661899526347,7214.629020050647,3722.9959634537654,23440.721445169624,13034.889165745875,10181.688986025929,10471.54640812235,0.0,0.0,0.0,2019-03-17T21:28:13.159383,16,EyesOpen
-16703.816259362255,634.3872111305251,7185.884676681123,3508.866251571924,23527.356806678392,12468.764182181858,10240.049390798735,10303.908324707547,0.0,0.0,0.0,2019-03-17T21:28:13.160085,16,EyesOpen
-16585.62023468259,752.4267735990016,7303.432500771582,3588.192592643809,23662.182529232807,12286.642168360017,10366.828485349237,10368.90719758358,0.0,0.0,0.0,2019-03-17T21:28:13.167167,16,EyesOpen
-16639.845566731165,711.9924678793511,7354.260367662951,3819.6672582229685,23598.72592672419,12843.49117797508,10334.865490778147,10555.9912986745,0.0,0.0,0.0,2019-03-17T21:28:13.167817,16,EyesOpen
-16758.823902466764,597.4844810348131,7252.492875157938,3778.8753245920334,23462.82732043592,13111.913277138863,10213.651980597018,10527.291658793887,0.0,0.0,0.0,2019-03-17T21:28:13.175331,16,EyesOpen
-16715.886201368117,636.0859437091284,7196.389996575117,3549.278205547119,23514.79512629451,12603.008759380433,10241.524605932786,10349.036496762812,0.0,0.0,0.0,2019-03-17T21:28:13.175972,16,EyesOpen
-16572.857388598608,768.9223610070183,7306.919372906611,3575.51915353765,23670.989116548197,12285.099897992599,10382.899389612603,10370.404764462086,0.012,1.022,0.178,2019-03-17T21:28:13.182424,16,EyesOpen
-16614.766909452308,746.3470991071581,7379.160210986163,3806.2562115497844,23640.031950477594,12754.821807720877,10376.819715120759,10553.979641673523,0.0,0.0,0.0,2019-03-17T21:28:13.183198,16,EyesOpen
-16737.902669656596,623.4572080918799,7298.448061758049,3823.4670547803707,23493.940948717707,13142.781036231641,10256.3214607622,10569.983490703522,0.0,0.0,0.0,2019-03-17T21:28:13.188940,16,EyesOpen
-16733.901707399094,618.7633417562654,7213.556136316793,3585.9127147093673,23500.46765809866,12718.433167747638,10243.156283278024,10383.033500079335,0.0,0.0,0.0,2019-03-17T21:28:13.196884,16,EyesOpen
-16602.920484890998,736.3335175911806,7293.307160533329,3538.3034990195633,23658.91917454233,12273.566397853661,10374.182209275034,10346.086066494712,0.0,0.0,0.0,2019-03-17T21:28:13.197896,16,EyesOpen
-16596.32672027668,742.3684885941135,7379.964873786555,3755.0707167471314,23666.138788001394,12632.557765550348,10398.612665964683,10517.523946466918,0.0,0.0,0.0,2019-03-17T21:28:13.204715,16,EyesOpen
-16724.35751251668,615.7235045103437,7311.792053197868,3824.919918169966,23515.778603050545,13121.569230743557,10275.588664482673,10574.27502563894,0.0,0.0,0.0,2019-03-17T21:28:13.205621,16,EyesOpen
-16753.45948379749,585.4815942623133,7208.795214747813,3606.185746930331,23486.117838158352,12819.932439319187,10232.248631983834,10402.032482866345,0.0,0.0,0.0,2019-03-17T21:28:13.212802,16,EyesOpen
-16618.454947287435,711.3219155456919,7269.368442221695,3510.2073562392425,23642.960029001242,12294.845258575113,10360.569996901751,10328.271726163832,0.0,0.0,0.0,2019-03-17T21:28:13.213550,16,EyesOpen
-16586.13432480506,756.2265701564038,7376.545056884892,3710.702504003347,23690.256320268672,12526.565793343281,10419.01980865238,10490.903018820647,0.0,0.0,0.0,2019-03-17T21:28:13.220901,16,EyesOpen
-16702.944541328496,644.3113856686814,7340.379934356205,3841.8401887226332,23553.977734324664,13087.125192537927,10315.464176590942,10596.157383460688,0.01,1.022,0.176,2019-03-17T21:28:13.221544,16,EyesOpen
-16767.876358971163,575.6468267019781,7225.491967855927,3651.5821399190595,23487.45894282567,12927.153757471295,10246.55374843523,10449.082904944768,0.0,0.0,0.0,2019-03-17T21:28:13.227634,16,EyesOpen
-16651.982563970396,690.579496691167,7250.078886756764,3496.393978165863,23624.76570901462,12347.505968511818,10355.317336954753,10334.060827977757,0.0,0.0,0.0,2019-03-17T21:28:13.228294,16,EyesOpen
-16580.792257880243,766.7542417948534,7367.98433875851,3660.9698725902886,23705.16493382036,12434.051923042765,10443.942003720047,10469.73591682147,0.0,0.0,0.0,2019-03-17T21:28:13.235620,16,EyesOpen
-16689.511142910855,645.7195455693658,7356.763763041946,3832.5418630292256,23580.039868359552,13025.166156907817,10354.445618920996,10607.847345810813,0.0,0.0,0.0,2019-03-17T21:28:13.236374,16,EyesOpen
-16778.89576898763,553.5633031801348,7238.8583110402005,3685.82501242459,23478.965279932654,13020.427587083292,10255.293280517255,10492.288826976875,0.0,0.0,0.0,2019-03-17T21:28:13.242217,16,EyesOpen
-16672.099133980173,655.934292785441,7238.970069762478,3495.991646765667,23596.513104023114,12434.297792231775,10343.225043204433,10347.47187465094,0.0,0.0,0.0,2019-03-17T21:28:13.242899,16,EyesOpen
-16560.116894259085,769.1682301960267,7371.2253417045295,3625.318840184074,23720.431175283335,12379.0219281938,10464.259739429921,10453.843826513747,0.0,0.0,0.0,2019-03-17T21:28:13.249234,16,EyesOpen
-16644.114749922126,704.7281509313764,7397.086310039319,3834.9558514303985,23631.78415677359,12963.85532186691,10409.788538192337,10626.28753498644,0.0,0.0,0.0,2019-03-17T21:28:13.257113,16,EyesOpen
-16760.433228067544,587.6050099855673,7277.079794058775,3735.2670711597293,23499.61829180936,13097.384643242913,10286.920998921514,10548.771685215437,0.0,0.0,0.0,2019-03-17T21:28:13.258031,16,EyesOpen
-16688.773535343833,649.0499554932065,7243.328659931262,3517.672838887315,23586.298356807038,12535.148863214119,10344.253223449377,10380.708918655982,0.012,1.018,0.176,2019-03-17T21:28:13.265097,16,EyesOpen
-16573.058554298706,766.3966138835685,7355.3779548857165,3581.8446972185016,23727.963713164772,12322.315552510687,10471.88168428918,10434.73308500446,0.0,0.0,0.0,2019-03-17T21:28:13.265743,16,EyesOpen
-16631.32955209369,725.0235348967952,7402.696597897601,3800.176537057941,23665.602346134467,12852.096599590373,10436.856500727714,10610.082520256343,0.0,0.0,0.0,2019-03-17T21:28:13.271606,16,EyesOpen
-16756.90165244361,592.6341524880114,7298.939800136066,3759.4516586603713,23519.868972285865,13131.895736681909,10309.160984654545,10576.778421017936,0.0,0.0,0.0,2019-03-17T21:28:13.272208,16,EyesOpen
-16720.468308981457,605.9110886944638,7243.172197720075,3526.367667480429,23568.260499031603,12630.948439949565,10334.32904891122,10395.14814557411,0.0,0.0,0.0,2019-03-17T21:28:13.279765,16,EyesOpen
-16577.193627022938,746.2353403848816,7356.584949086303,3541.2986327765743,23733.149317878404,12291.045462017712,10482.051728016344,10411.621381237672,0.0,0.0,0.0,2019-03-17T21:28:13.280524,16,EyesOpen
-16602.5181534908,727.0128401533175,7433.631412223746,3770.582827399114,23710.194076322805,12745.255261094006,10485.60565538474,10594.279836926442,0.0,0.0,0.0,2019-03-17T21:28:13.287781,16,EyesOpen
-16736.293344055815,593.8411466885981,7346.526664081414,3789.693568908402,23551.78726336804,13150.626498535456,10351.428133419531,10610.171927234165,0.0,0.0,0.0,2019-03-17T21:28:13.288438,16,EyesOpen
-16726.16800381756,599.3173240801483,7267.781468365368,3565.0138336436553,23560.079760560962,12757.839293222343,10339.648764091584,10436.096541416233,0.0,0.0,0.0,2019-03-17T21:28:13.294572,16,EyesOpen
-16594.76209816481,737.9428431919627,7349.700611794068,3517.3599144649406,23721.347596806005,12308.122194781567,10475.323852935297,10405.497003256918,0.0,0.0,0.0,2019-03-17T21:28:13.295219,16,EyesOpen
-16584.301481759725,760.3392911361803,7445.053153640409,3738.955108994855,23735.22803011275,12650.819140770334,10510.103167307756,10586.0990984558,0.01,1.02,0.17200000000000001,2019-03-17T21:28:13.302490,16,EyesOpen
-16717.003788590882,622.294917380204,7378.109678996763,3817.1862145884297,23577.983507869663,13153.733391014743,10384.709880913482,10652.707296932615,0.0,0.0,0.0,2019-03-17T21:28:13.303257,16,EyesOpen
-16740.20489933549,598.713826979855,7281.43838422756,3617.3839709024396,23549.93206857825,12889.781640742021,10344.47674089393,10498.301446235353,0.0,0.0,0.0,2019-03-17T21:28:13.309330,16,EyesOpen
-16607.27907505978,733.2042733674376,7341.296355878873,3511.771978351114,23706.34957627649,12358.748895972836,10474.563893623817,10423.646619754627,0.0,0.0,0.0,2019-03-17T21:28:13.317202,16,EyesOpen
-16559.714562858888,777.7513000668646,7456.027860167964,3709.3166958471174,23765.268774660683,12565.033145550866,10544.65896423566,10583.372185632252,0.0,0.0,0.0,2019-03-17T21:28:13.318100,16,EyesOpen
-16681.799791073776,661.1198974990723,7419.214537050073,3845.394116091027,23624.855115992443,13132.678047737843,10437.795273994836,10695.287370119973,0.0,0.0,0.0,2019-03-17T21:28:13.324061,16,EyesOpen
-16747.4021610501,585.4145390289473,7295.654093701136,3659.7181749007914,23541.773681852064,13001.026272896084,10353.909177054069,10550.269252093942,0.0,0.0,0.0,2019-03-17T21:28:13.324796,16,EyesOpen
-16623.327627578692,693.418168236991,7324.241974859474,3502.4513009132506,23683.77431437663,12422.049036270266,10466.561969108818,10435.649506527127,0.0,0.0,0.0,2019-03-17T21:28:13.332145,16,EyesOpen
-16551.33265868815,772.4539366309568,7446.953051919109,3658.1088493000093,23772.108408464006,12479.045984631299,10557.645327764194,10561.735696999514,0.0,0.0,0.0,2019-03-17T21:28:13.332886,16,EyesOpen
-16656.00587797235,678.8001273632202,7442.795627450422,3831.111351384086,23652.034837250096,13063.834674815498,10470.987614510968,10700.674140533703,0.0,0.0,0.0,2019-03-17T21:28:13.339994,16,EyesOpen
-16743.959992403983,597.7079984793662,7327.125349894208,3694.4527857843386,23547.540431921534,13082.006643057663,10370.807095862281,10594.726871815548,0.01,1.02,0.17400000000000002,2019-03-17T21:28:13.340632,16,EyesOpen
-16649.34505812467,686.8020518782201,7321.358599824739,3500.417292167818,23657.39925591937,12497.553229040293,10452.390963124153,10445.216053154,0.0,0.0,0.0,2019-03-17T21:28:13.347191,16,EyesOpen
-16540.55911786069,792.8387275741968,7448.09299088633,3619.172110458864,23780.42325740138,12412.79541406577,10571.570464559849,10541.663830478648,0.0,0.0,0.0,2019-03-17T21:28:13.347809,16,EyesOpen
-16626.43452005798,713.802959180231,7472.121116175786,3828.13856937153,23688.6916981568,12986.207066322217,10514.215888287532,10706.64205630327,0.0,0.0,0.0,2019-03-17T21:28:13.354790,16,EyesOpen
-16739.087312112726,598.0656263906511,7360.384745643705,3746.554702109659,23557.866937859886,13155.40977184889,10391.370700761165,10637.239889769542,0.0,0.0,0.0,2019-03-17T21:28:13.355450,16,EyesOpen
-16670.087476979195,653.8108770621869,7325.314858593329,3525.8759291024126,23636.165098686826,12604.26045706993,10440.611593796206,10467.053707486833,0.0,0.0,0.0,2019-03-17T21:28:13.362727,16,EyesOpen
-16543.286030684238,782.512221635845,7441.655688483202,3588.2596478771748,23780.42325740138,12369.969471689401,10570.98931920401,10513.500632464962,0.0,0.0,0.0,2019-03-17T21:28:13.363367,16,EyesOpen
-16597.153734821528,734.9924129238622,7497.713863577112,3816.940345399421,23727.337864320027,12895.593094300402,10545.128350869221,10696.427309087196,0.0,0.0,0.0,2019-03-17T21:28:13.369842,16,EyesOpen
-16727.68792244052,605.1511293829834,7396.41575770566,3790.5876386866144,23577.245900302638,13203.689539872354,10413.990666149935,10672.82386694239,0.0,0.0,0.0,2019-03-17T21:28:13.370672,16,EyesOpen
-16690.06993652224,633.7390105413211,7329.561690039836,3555.4696387612394,23612.896932708853,12723.752882928,10425.211241866498,10489.181934497588,0.0,0.0,0.0,2019-03-17T21:28:13.377115,16,EyesOpen
-16551.220899965872,759.0205382133172,7430.703333700101,3555.5590457390604,23770.163806696393,12360.581739018171,10563.657947022672,10490.634797887184,0.012,1.022,0.178,2019-03-17T21:28:13.384386,16,EyesOpen
-16569.169350763485,760.6298638140994,7518.232764987084,3791.9510950983877,23760.530204836155,12803.280389699983,10575.750240772992,10677.204808855631,0.0,0.0,0.0,2019-03-17T21:28:13.385143,16,EyesOpen
-16712.68990191101,629.4474756059022,7435.374848291261,3819.823720434156,23603.531551782078,13226.778891894686,10440.58924205175,10698.684835277181,0.0,0.0,0.0,2019-03-17T21:28:13.393790,16,EyesOpen
-16712.98047458893,621.9596412133743,7347.554844326359,3590.0924909225096,23601.452839547735,12851.157826323251,10420.092692386233,10518.909754623146,0.0,0.0,0.0,2019-03-17T21:28:13.394483,16,EyesOpen
-16568.387039707548,754.3713753666134,7431.239775567028,3527.9769930812113,23761.08899844754,12389.370785876607,10556.99712717499,10475.726184335494,0.0,0.0,0.0,2019-03-17T21:28:13.401934,16,EyesOpen
-16543.17427196196,773.9068000205517,7537.9246518522095,3745.9288532649107,23785.89943479293,12712.42054848916,10600.29245618492,10652.48377948806,0.0,0.0,0.0,2019-03-17T21:28:13.402577,16,EyesOpen
-16677.441200904992,647.5076851257903,7481.642959313746,3836.8333979646445,23634.846345763966,13228.164700050915,10478.520152392406,10727.339771668885,0.0,0.0,0.0,2019-03-17T21:28:13.408111,16,EyesOpen
-16725.229230550438,605.2181846163494,7369.548960870381,3626.6152413624814,23590.634595231368,12989.693938457243,10422.819605209781,10567.27892962443,0.0,0.0,0.0,2019-03-17T21:28:13.408855,16,EyesOpen
-16589.889417873554,729.1362558765717,7413.268973024961,3502.2948387020638,23738.17846038085,12441.584460924205,10542.267327578942,10473.446306401052,0.0,0.0,0.0,2019-03-17T21:28:13.415077,16,EyesOpen
-16536.289934669727,788.1448612385823,7531.286183748983,3696.039759640665,23805.5689699136,12624.39937882416,10618.48677617154,10627.047494297922,0.0,0.0,0.0,2019-03-17T21:28:13.415773,16,EyesOpen
-16662.242014675383,679.2024587634157,7505.24640145855,3842.242520122829,23670.92206131483,13194.927656045873,10512.561859197838,10740.147321241775,0.008,1.02,0.182,2019-03-17T21:28:13.423111,16,EyesOpen
-16710.365320487657,618.2716033782486,7401.310789741372,3681.5781809780815,23599.128258124383,13102.145564811894,10436.565928049795,10613.077654013356,0.0,0.0,0.0,2019-03-17T21:28:13.423870,16,EyesOpen
-16596.75140342133,716.0157818813065,7412.129034057741,3507.480443415695,23721.83933518402,12515.725197282458,10528.297487294376,10480.442402415563,0.0,0.0,0.0,2019-03-17T21:28:13.429654,16,EyesOpen
-16513.60291404759,795.6103438866548,7532.895509349765,3659.2934917561406,23817.258932263725,12547.464674408993,10624.097064029822,10600.270104440464,0.0,0.0,0.0,2019-03-17T21:28:13.430290,16,EyesOpen
-16619.14785136555,708.1703195774936,7529.565099425924,3841.4378573224376,23701.432192496326,13133.12508262695,10541.440313034096,10746.092885266888,0.0,0.0,0.0,2019-03-17T21:28:13.436747,16,EyesOpen
-16710.20885827647,607.1180828950504,7414.27480152545,3716.40219883945,23596.8707319344,13183.170638462381,10437.459997828008,10647.499340474527,0.0,0.0,0.0,2019-03-17T21:28:13.444423,16,EyesOpen
-16626.658037502533,678.4872029408459,7404.127109542741,3516.510548175639,23703.443849497304,12604.9757128925,10513.992370842978,10492.333530465787,0.0,0.0,0.0,2019-03-17T21:28:13.445102,16,EyesOpen
-16520.621361806556,790.5141461508449,7524.960640068131,3616.4899011242273,23827.607789946534,12488.61253125817,10634.311811245896,10576.04081345091,0.0,0.0,0.0,2019-03-17T21:28:13.452598,16,EyesOpen
-16605.490935503356,723.0789331291835,7553.973204371119,3823.668220480469,23741.575925538054,13051.764732809632,10579.192409419109,10743.880062565811,0.0,0.0,0.0,2019-03-17T21:28:13.453448,16,EyesOpen
-16714.83566937872,606.4922340503018,7447.914176930688,3752.8578940460557,23611.220551874703,13246.068447359616,10458.805913782826,10687.330149093885,0.0,0.0,0.0,2019-03-17T21:28:13.459785,16,EyesOpen
-16639.689104519977,657.4318596639466,7408.6198101782575,3530.7709611381247,23681.986174820206,12705.826783874845,10503.442347460074,10515.020551087922,0.006,1.016,0.184,2019-03-17T21:28:13.460553,16,EyesOpen
-16511.904181468988,791.475271162423,7526.145282524262,3579.3189500950516,23833.776871416198,12446.07716155972,10642.313735760896,10559.746391742992,0.0,0.0,0.0,2019-03-17T21:28:13.467451,16,EyesOpen
-16557.211167479894,756.1371631785826,7587.277303609527,3810.2571738072843,23787.32994643807,12951.51715892758,10625.214651252587,10745.243518977586,0.0,0.0,0.0,2019-03-17T21:28:13.468086,16,EyesOpen
-16697.35660521467,613.7341992538213,7482.8723052587875,3791.437004975916,23629.817203261522,13275.237473873793,10490.657149631637,10730.9831060151,0.0,0.0,0.0,2019-03-17T21:28:13.475263,16,EyesOpen
-16671.070953735227,639.8410367776199,7422.924926629655,3555.89432190589,23659.96970653173,12818.479575929592,10499.50844043594,10549.866920693747,0.0,0.0,0.0,2019-03-17T21:28:13.476007,16,EyesOpen
-16533.98770499083,777.1925064554819,7535.018925073019,3541.2986327765743,23817.482449708277,12433.962516064945,10635.474101957572,10540.27802232242,0.0,0.0,0.0,2019-03-17T21:28:13.482505,16,EyesOpen
-16539.933269015943,769.414099385035,7634.707705343689,3777.8918478359997,23813.459135706322,12855.203492069662,10651.746171921037,10726.490405379584,0.0,0.0,0.0,2019-03-17T21:28:13.483142,16,EyesOpen
-16660.6326890746,636.3318128981367,7566.445477777181,3832.5642147736808,23667.234023479705,13305.792308544196,10528.811577416847,10770.568045445449,0.0,0.0,0.0,2019-03-17T21:28:13.490046,16,EyesOpen
-16654.083627949196,628.7098680388771,7472.9481307206315,3609.6279155764482,23661.19905247677,12956.926281085764,10507.577420184305,10599.487793384527,0.0,0.0,0.0,2019-03-17T21:28:13.490989,16,EyesOpen
-16508.640826778512,757.4112126125351,7539.8692536198205,3534.9507373512674,23820.879914865487,12471.17817058303,10640.749113649024,10544.234281091009,0.0,0.0,0.0,2019-03-17T21:28:13.496970,16,EyesOpen
-16495.855628950078,787.7425298383868,7640.116827501873,3748.5663591106368,23846.830290178095,12766.757639260011,10685.20673337063,10710.955942983144,0.016,1.018,0.178,2019-03-17T21:28:13.504691,16,EyesOpen
-16632.96122943893,662.0810225106505,7579.0742133944295,3849.663299281991,23694.413744737358,13294.68349154991,10565.446086579095,10789.790545677013,0.0,0.0,0.0,2019-03-17T21:28:13.505432,16,EyesOpen
-16678.558788127757,617.9810307003297,7468.410726596204,3641.5238549141714,23644.323485413013,13070.406087685358,10503.017664315423,10626.332238475352,0.0,0.0,0.0,2019-03-17T21:28:13.512031,16,EyesOpen
-16553.23255696685,746.3470991071581,7508.621514871302,3508.2627544716306,23791.532074395665,12513.445319348017,10618.218555238076,10524.22946980351,0.0,0.0,0.0,2019-03-17T21:28:13.512886,16,EyesOpen
-16489.328919569125,807.1661957700486,7629.611507607879,3695.659779984925,23863.77291247522,12675.517818393448,10700.45062308915,10677.294215833452,0.0,0.0,0.0,2019-03-17T21:28:13.519365,16,EyesOpen
