eeg1,eeg2,eeg3,eeg4,eeg5,eeg6,eeg7,eeg8,accx,accy,accz,iso_utc,session_id,command_name
0.0,0.0,0.0,0.0,0.0,0.0,0.0,0.0,0.026000000000000002,1.02,0.18,2019-03-17T21:29:29.460551,18,EyesOpen
-19993.43424957207,-5638.138131873386,7482.537029091958,4588.85784016345,22904.637206153537,14934.295706068959,7030.271831783275,12028.85949955696,0.0,0.0,0.0,2019-03-17T21:29:29.472095,18,EyesOpen
-20104.678881726133,-5756.870598419977,7473.506924332014,4746.482342062276,22779.31097499263,15412.935961834904,6939.411990572452,12154.051620251133,0.0,0.0,0.0,2019-03-17T21:29:29.478098,18,EyesOpen
-20176.718554105588,-5830.3854859334815,7371.828838804822,4601.978314158716,22690.842770438525,15347.937088958872,6848.753315061726,12036.57085139404,0.0,0.0,0.0,2019-03-17T21:29:29.478860,18,EyesOpen
-20078.795561646886,-5747.058182604097,7369.861885292756,4421.711495126664,22802.51208573724,14852.041286473428,6930.448941045874,11894.50316363611,0.0,0.0,0.0,2019-03-17T21:29:29.484670,18,EyesOpen
-19995.758830995423,-5654.030222181109,7475.719747033089,4541.740362851663,22900.77035436277,14852.13069345125,7028.081360826655,11992.716728772728,0.0,0.0,0.0,2019-03-17T21:29:29.485260,18,EyesOpen
-20088.45151525158,-5725.622859671457,7489.778994295478,4731.50667327722,22805.2837020497,15347.758275003229,6962.814267017158,12152.039963250156,0.0,0.0,0.0,2019-03-17T21:29:29.492634,18,EyesOpen
-20182.395897197235,-5825.445750408859,7389.687882624613,4640.244500666202,22699.001157164712,15419.395615982488,6862.186713479366,12078.793296670116,0.0,0.0,0.0,2019-03-17T21:29:29.493522,18,EyesOpen
-20110.512687028968,-5757.876426920465,7360.988242743999,4435.569576688955,22786.329422751598,14941.940002672674,6918.8930891624805,11918.128957525369,0.026000000000000002,1.02,0.18,2019-03-17T21:29:29.500577,18,EyesOpen
-20012.38852887017,-5651.348012846472,7451.155179876707,4496.925115218773,22902.71495613038,14810.288227830915,7025.354448003108,11970.834370950983,0.0,0.0,0.0,2019-03-17T21:29:29.501162,18,EyesOpen
-20077.70032616858,-5709.574307152547,7487.521468105491,4702.471757229777,22831.81522271815,15273.908111322895,6983.310816682675,12141.40053288943,0.0,0.0,0.0,2019-03-17T21:29:29.508026,18,EyesOpen
-20184.586368153854,-5825.110474242029,7400.37201647425,4667.290111457123,22706.980729935258,15467.429514816942,6871.21681823931,12113.483204064752,0.0,0.0,0.0,2019-03-17T21:29:29.508892,18,EyesOpen
-20138.787643764932,-5785.234962133761,7349.342983882783,4446.633690194331,22759.350867194044,15025.803747868986,6894.037949328179,11937.329106012477,0.0,0.0,0.0,2019-03-17T21:29:29.515311,18,EyesOpen
-20025.509002865434,-5671.397527622882,7425.540080730925,4442.029230836539,22883.693621598915,14766.098829042772,7000.901639569001,11934.60219318893,0.0,0.0,0.0,2019-03-17T21:29:29.515836,18,EyesOpen
-20051.81700608933,-5688.831888298022,7491.075395473886,4658.505875886188,22848.266106637253,15171.358307761946,6989.993988274812,12108.655227262405,0.0,0.0,0.0,2019-03-17T21:29:29.523493,18,EyesOpen
-20163.531024876957,-5801.596439075046,7426.389447020227,4686.646722155419,22717.955436462813,15478.739497511327,6878.257617742732,12131.901041495925,0.0,0.0,0.0,2019-03-17T21:29:29.524098,18,EyesOpen
-20146.454292113103,-5796.880220994976,7350.9746612280205,4469.276007327558,22733.869878514994,15109.175754687281,6867.484076915273,11957.378620788888,0.0,0.0,0.0,2019-03-17T21:29:29.530268,18,EyesOpen
-20031.745139568466,-5687.557838864069,7402.249563008495,4410.513271154556,22865.164025445465,14746.87632881121,6973.230179933332,11908.964742298693,0.0,0.0,0.0,2019-03-17T21:29:29.537263,18,EyesOpen
-20025.799575543355,-5662.5685885630355,7483.431098870171,4621.849014979483,22864.895804512,15070.440181546233,6992.564438887172,12078.34626178101,0.018000000000000002,1.016,0.178,2019-03-17T21:29:29.537883,18,EyesOpen
-20142.878013000252,-5770.5722177710795,7429.496339499515,4700.482451973254,22729.0642534571,15464.63554676003,6881.275103244198,12141.556995100618,0.0,0.0,0.0,2019-03-17T21:29:29.544957,18,EyesOpen
-20168.69427784613,-5806.402064132937,7328.868785961722,4495.4051965958115,22702.465677555287,15187.295101558579,6836.146931188933,11975.46118205323,0.0,0.0,0.0,2019-03-17T21:29:29.545674,18,EyesOpen
-20052.554613656357,-5697.0796820020305,7363.871617778733,4393.615352346344,22839.481871066317,14752.687782369589,6942.004792929268,11892.379747912855,0.0,0.0,0.0,2019-03-17T21:29:29.552847,18,EyesOpen
-20020.077528962796,-5661.361594362449,7460.229988125562,4583.113441838436,22878.41860990746,14971.667822798232,6993.749081343303,12045.91388057636,0.0,0.0,0.0,2019-03-17T21:29:29.553304,18,EyesOpen
-20131.612733794776,-5757.719964709278,7434.436075024138,4711.50186198972,22746.386855409964,15430.795005654694,6892.495678960762,12150.788265560659,0.0,0.0,0.0,2019-03-17T21:29:29.561098,18,EyesOpen
-20189.816676356397,-5823.411741663425,7331.439236574082,4540.511016906621,22683.801970935103,15276.947948568815,6819.964268203291,12014.576734850018,0.0,0.0,0.0,2019-03-17T21:29:29.561927,18,EyesOpen
-20088.429163507124,-5732.261327774683,7346.884291992699,4390.5084598670555,22806.289530550188,14797.279512557927,6912.925173392913,11896.514820637087,0.0,0.0,0.0,2019-03-17T21:29:29.567632,18,EyesOpen
-20025.10667146524,-5671.509286345159,7446.975403663565,4541.7180111072075,22872.67421158245,14888.318167724392,6987.200020217899,12018.018903496135,0.0,0.0,0.0,2019-03-17T21:29:29.568132,18,EyesOpen
-20112.21141960757,-5751.573234984068,7451.71397348809,4716.195728325335,22762.524814906697,15385.912702788437,6913.305153048654,12161.561806388117,0.0,0.0,0.0,2019-03-17T21:29:29.575657,18,EyesOpen
-20185.279272231972,-5826.29511669816,7354.014498473943,4591.674159964819,22677.275261554154,15363.89623449996,6829.977849719268,12063.81762788506,0.012,1.018,0.178,2019-03-17T21:29:29.576280,18,EyesOpen
-20107.87518118324,-5740.799694156611,7342.905681479655,4407.629896119821,22783.669565161417,14869.676812848666,6903.403330254952,11916.698445880229,0.0,0.0,0.0,2019-03-17T21:29:29.583578,18,EyesOpen
-20026.224258688006,-5647.369402333427,7442.125075116763,4513.666571815797,22879.42443840795,14836.88680373273,6994.889020310524,12001.590371321485,0.0,0.0,0.0,2019-03-17T21:29:29.584021,18,EyesOpen
-20101.72845145803,-5710.826004842044,7462.599273037824,4712.708856190307,22784.27306226171,15325.048902636636,6931.119493379533,12160.243053465254,0.0,0.0,0.0,2019-03-17T21:29:29.590924,18,EyesOpen
-20195.337557236857,-5814.716913070311,7368.163152714152,4640.244500666202,22671.888491140428,15432.001999855282,6826.669791539883,12101.547372525618,0.0,0.0,0.0,2019-03-17T21:29:29.597134,18,EyesOpen
-20138.407664109192,-5767.845304947532,7323.750236481457,4425.935974828717,22739.591925095552,14955.57456679041,6865.874751314492,11932.322315254489,0.0,0.0,0.0,2019-03-17T21:29:29.597680,18,EyesOpen
-20038.316552438326,-5662.903864729866,7407.32340899985,4478.507277787599,22859.15140618699,14790.797506665887,6972.917255510957,11973.918911685814,0.0,0.0,0.0,2019-03-17T21:29:29.605219,18,EyesOpen
-20081.500122725978,-5696.69970234629,7458.6877177581455,4702.941143863338,22806.401289272464,15250.774055811651,6946.028106931223,12156.64442260795,0.0,0.0,0.0,2019-03-17T21:29:29.605764,18,EyesOpen
-20187.313280977403,-5800.076520452085,7371.158286471163,4679.762384863185,22673.58722371903,15468.524750295253,6826.133349672956,12135.723189797782,0.0,0.0,0.0,2019-03-17T21:29:29.613138,18,EyesOpen
-20156.80314979591,-5778.037700419152,7304.460681016527,4459.038908367027,22709.372366591975,15038.946573608706,6836.3033934001205,11956.909234155326,0.0,0.0,0.0,2019-03-17T21:29:29.613644,18,EyesOpen
-20028.705302322545,-5667.888303743399,7383.027062776931,4458.010728122083,22847.752016514783,14764.847131353275,6952.599519801083,11955.925757399293,0.008,1.02,0.186,2019-03-17T21:29:29.620553,18,EyesOpen
-20049.53712815489,-5682.931027761821,7453.256243855506,4679.516515674176,22823.120394125035,15151.755827874642,6949.582034299617,12133.599774074528,0.0,0.0,0.0,2019-03-17T21:29:29.621053,18,EyesOpen
-20170.03538251345,-5800.210630918817,7392.4147954481605,4720.442559771844,22688.071154126068,15480.281767878745,6836.325745144576,12167.440315179863,0.0,0.0,0.0,2019-03-17T21:29:29.628726,18,EyesOpen
-20163.821597554874,-5794.488584338258,7316.530623022392,4507.095158945937,22695.044898396125,15131.125167742393,6819.249012380721,11994.929551473804,0.0,0.0,0.0,2019-03-17T21:29:29.629555,18,EyesOpen
-20051.01234328894,-5681.969902750243,7360.675318321624,4433.133236543326,22821.578123757616,14736.907450784141,6917.708446706349,11929.97538208668,0.0,0.0,0.0,2019-03-17T21:29:29.635221,18,EyesOpen
-20039.948229783564,-5666.256626398162,7445.56724376288,4639.551596588087,22834.02804541922,15028.038922314516,6944.217615630343,12093.031357888147,0.0,0.0,0.0,2019-03-17T21:29:29.635758,18,EyesOpen
-20152.84689102732,-5775.511953295702,7407.7480921445,4735.574690768086,22704.34322408953,15441.76971218225,6836.4822073557625,12169.049640780646,0.0,0.0,0.0,2019-03-17T21:29:29.643327,18,EyesOpen
-20167.12965573426,-5797.059034950618,7321.939745180577,4545.0037175421385,22681.902072656405,15203.969502922238,6797.791337703627,12018.398883151876,0.0,0.0,0.0,2019-03-17T21:29:29.643843,18,EyesOpen
-20059.97539281552,-5704.567516394558,7345.252614647462,4417.01762879105,22805.12723983851,14747.368067189225,6890.3052080041425,11915.849079590927,0.0,0.0,0.0,2019-03-17T21:29:29.650254,18,EyesOpen
-20029.375854656202,-5655.863065226444,7440.09106637133,4601.173651358325,22853.0940834396,14934.698037469154,6945.871644720036,12060.353107494488,0.0,0.0,0.0,2019-03-17T21:29:29.657273,18,EyesOpen
-20135.79251000792,-5749.449819260814,7420.019199850464,4748.762219996717,22727.566686578597,15412.824203112628,6852.597815108039,12176.69393738436,0.008,1.022,0.196,2019-03-17T21:29:29.658118,18,EyesOpen
-20198.422097971692,-5824.5740323751015,7314.6977799770575,4585.370968028423,22659.48327296773,15292.54946619862,6779.507610739185,12046.71854337675,0.0,0.0,0.0,2019-03-17T21:29:29.664857,18,EyesOpen
-20090.507875741467,-5738.318650522072,7315.055407888342,4420.437445692712,22776.762876124725,14801.749861448987,6865.874751314492,11917.190184258245,0.0,0.0,0.0,2019-03-17T21:29:29.665377,18,EyesOpen
-20029.934648267586,-5664.759059519656,7411.570240446358,4563.130982295392,22853.04937995069,14863.977118012563,6945.938699953402,12033.151034492379,0.0,0.0,0.0,2019-03-17T21:29:29.675978,18,EyesOpen
-20132.97619020655,-5750.768572183678,7411.056150323886,4739.665060003407,22741.290657674155,15358.80003676415,6864.555998391628,12177.923283329403,0.0,0.0,0.0,2019-03-17T21:29:29.676623,18,EyesOpen
-20207.340444009358,-5826.809206820632,7307.7687391959125,4618.608012033465,22646.58631641702,15364.23151066679,6768.085869322524,12085.476468262252,0.0,0.0,0.0,2019-03-17T21:29:29.682377,18,EyesOpen
-20117.73230048803,-5746.90172039291,7283.360634250717,4418.269326480547,22743.659942586415,14868.961557026096,6831.96715497579,11929.908326853316,0.0,0.0,0.0,2019-03-17T21:29:29.683002,18,EyesOpen
-20032.840375046777,-5657.382983849405,7382.714138354557,4516.259374172613,22852.93762122841,14804.432070783625,6933.198205613877,12007.602990579962,0.0,0.0,0.0,2019-03-17T21:29:29.688626,18,EyesOpen
-20109.663320739666,-5723.544147437114,7414.587725947825,4723.750617951228,22769.02917254319,15290.046070819626,6879.464611943318,12175.822219350603,0.0,0.0,0.0,2019-03-17T21:29:29.689178,18,EyesOpen
-20205.14997305274,-5824.752846330744,7327.192405127574,4662.082154999037,22653.895336853904,15422.949543350882,6773.539694969618,12125.866070492992,0.0,0.0,0.0,2019-03-17T21:29:29.695606,18,EyesOpen
-20147.661286313687,-5778.95412194182,7273.682328901569,4439.101152312894,22712.501610815718,14944.175177118204,6803.9604191732915,11944.638126449363,0.008,1.016,0.2,2019-03-17T21:29:29.696475,18,EyesOpen
-20032.39334015767,-5660.2216553952285,7361.815257288845,4481.100080144415,22838.587801288108,14751.05610502435,6913.282801304198,11972.220179107211,0.0,0.0,0.0,2019-03-17T21:29:29.703686,18,EyesOpen
-20081.656584937165,-5700.275981459139,7418.342819016317,4702.270591529678,22789.03398383069,15195.922874918328,6888.047681814156,12148.910719026413,0.0,0.0,0.0,2019-03-17T21:29:29.704335,18,EyesOpen
-20198.690318905155,-5813.442863636358,7341.564576812337,4696.123861804469,22659.32681075654,15446.977668640337,6775.171372314856,12143.076913723578,0.0,0.0,0.0,2019-03-17T21:29:29.710772,18,EyesOpen
-20176.60679538331,-5793.035720948663,7266.418011953594,4468.828972438451,22686.73004945875,15028.776529881541,6776.62423570445,11957.758600444628,0.0,0.0,0.0,2019-03-17T21:29:29.711546,18,EyesOpen
-20057.20377650306,-5669.6093880664575,7340.379934356205,4452.0875158414265,22827.747205227282,14727.25149717945,6892.65214117195,11941.88886188136,0.0,0.0,0.0,2019-03-17T21:29:29.717612,18,EyesOpen
-20069.83251212031,-5682.238123683706,7413.805414891889,4669.190009735824,22809.530533496207,15096.591722558944,6894.797908639659,12114.153756398411,0.0,0.0,0.0,2019-03-17T21:29:29.725247,18,EyesOpen
-20181.45712393011,-5796.723758783789,7351.511103094948,4717.849757415028,22671.73202892924,15444.563680239164,6780.669901450861,12152.554053372629,0.0,0.0,0.0,2019-03-17T21:29:29.726176,18,EyesOpen
-20186.75448736602,-5807.072616466596,7265.523942175382,4503.116548432893,22669.698020183805,15118.675246080787,6759.592206429506,11982.792554234571,0.0,0.0,0.0,2019-03-17T21:29:29.733444,18,EyesOpen
-20070.97245108753,-5697.392606424404,7313.06610263182,4418.425788691734,22806.3342340391,14720.322456398304,6872.602626395539,11919.715931381696,0.0,0.0,0.0,2019-03-17T21:29:29.734111,18,EyesOpen
-20057.516700925436,-5678.013643981653,7395.342873971806,4614.137663142403,22820.66170223495,14993.505477131068,6902.84453664357,12076.781639669138,0.006,1.018,0.2,2019-03-17T21:29:29.740371,18,EyesOpen
-20170.75063833602,-5792.879258737476,7354.573292085325,4714.653457957918,22685.098372113513,15421.04964507218,6793.902134168403,12155.906815040924,0.0,0.0,0.0,2019-03-17T21:29:29.741022,18,EyesOpen
-20206.222856786593,-5834.63231737999,7256.180912993063,4524.306002176524,22647.547441428596,15202.047252899081,6740.816741087048,12000.13750793189,0.0,0.0,0.0,2019-03-17T21:29:29.748466,18,EyesOpen
-20089.434992007613,-5720.124330535452,7281.639549927659,4395.179974458215,22777.50048369175,14739.612011863233,6838.695030056839,11894.123183980368,0.0,0.0,0.0,2019-03-17T21:29:29.749172,18,EyesOpen
-20037.601296615758,-5662.300367629572,7375.829801062322,4564.7850113850845,22826.339045326597,14891.80503985942,6895.311998762131,12025.66320009985,0.0,0.0,0.0,2019-03-17T21:29:29.756003,18,EyesOpen
-20150.4552543706,-5767.219456102784,7364.318652667839,4719.637896971452,22707.427764824362,15372.501656115253,6804.720378484772,12146.317916669597,0.0,0.0,0.0,2019-03-17T21:29:29.756919,18,EyesOpen
-20216.839935402862,-5838.5438726596685,7261.522979917882,4566.327281752501,22626.80502257407,15275.74095436823,6720.744874566183,12018.957676763259,0.0,0.0,0.0,2019-03-17T21:29:29.764199,18,EyesOpen
-20117.285265598926,-5747.572272726568,7256.2926717153405,4394.688236080198,22735.009817482212,14779.509875715958,6798.7971662041155,11878.342852394922,0.0,0.0,0.0,2019-03-17T21:29:29.764823,18,EyesOpen
-20043.16688098513,-5663.954396719265,7362.463457878049,4531.726781335686,22823.74624296978,14813.193954610106,6887.1983155248545,11984.156010646346,0.0,0.0,0.0,2019-03-17T21:29:29.770657,18,EyesOpen
-20137.401835608704,-5742.1631505683845,7370.018347503942,4717.805053926117,22718.15660216291,15305.200553560324,6813.862241966992,12131.386951373453,0.0,0.0,0.0,2019-03-17T21:29:29.771628,18,EyesOpen
-20218.784537170475,-5825.803378320144,7274.352881235228,4615.299953854079,22620.14420272639,15344.204347634835,6718.956735009759,12047.992592810702,0.01,1.016,0.2,2019-03-17T21:29:29.777630,18,EyesOpen
-20142.90036474471,-5766.683014235856,7239.57356686277,4403.293657695492,22704.92436944537,14847.392123626725,6770.030471090135,11880.868599518371,0.0,0.0,0.0,2019-03-17T21:29:29.785413,18,EyesOpen
-20033.801500058355,-5679.488859115703,7337.720076766023,4485.503373802111,22816.839553933092,14752.218395736027,6871.440335683863,11944.12403632689,0.0,0.0,0.0,2019-03-17T21:29:29.786103,18,EyesOpen
-20097.83924792281,-5731.210795785284,7384.479926166526,4701.331818262555,22749.78432056717,15238.368837638956,6834.001163721224,12120.993390201735,0.0,0.0,0.0,2019-03-17T21:29:29.793329,18,EyesOpen
-20213.15189756774,-5835.34757320256,7296.034073356876,4652.5379601166205,22633.2423249772,15405.403423953465,6725.66225834635,12082.257817060688,0.0,0.0,0.0,2019-03-17T21:29:29.794084,18,EyesOpen
-20166.347344678325,-5793.1698314153955,7240.646450596625,4433.133236543326,22694.128476873455,14946.790331219476,6753.66899414885,11904.40498642981,0.0,0.0,0.0,2019-03-17T21:29:29.800178,18,EyesOpen
-20045.87144206422,-5672.179838678818,7324.532547537393,4457.027251366049,22823.790946458692,14727.184441946083,6867.372318192997,11921.794643616038,0.0,0.0,0.0,2019-03-17T21:29:29.801021,18,EyesOpen
-20092.92186414264,-5704.925144305843,7377.394423174193,4672.54277140412,22780.85324536005,15152.359324974934,6851.033192996168,12096.227657345255,0.0,0.0,0.0,2019-03-17T21:29:29.808873,18,EyesOpen
-20208.726252165587,-5823.903480041442,7300.102090847742,4678.68950112933,22645.446377449796,15429.185680053912,6733.731238094716,12100.541544025129,0.0,0.0,0.0,2019-03-17T21:29:29.809613,18,EyesOpen
-20185.212216998603,-5805.57504958809,7220.149900931108,4454.076821097949,22666.90405212689,15036.934916607728,6729.260889203655,11919.827690103972,0.0,0.0,0.0,2019-03-17T21:29:29.816129,18,EyesOpen
-20064.468093451036,-5688.1613359643625,7281.483087716471,4415.721227612642,22801.886236892493,14703.066909678808,6842.986564992258,11886.344776909922,0.014,1.014,0.194,2019-03-17T21:29:29.816775,18,EyesOpen
-20078.6390994357,-5696.297370946094,7353.589815329292,4628.465131338255,22790.28568152019,15050.435370258734,6853.469533141796,12059.280223760632,0.0,0.0,0.0,2019-03-17T21:29:29.822898,18,EyesOpen
-20200.85843811732,-5810.939468257364,7297.039901857365,4692.122899546969,22652.3977699754,15427.688113175407,6741.084962020513,12112.92441045337,0.0,0.0,0.0,2019-03-17T21:29:29.823605,18,EyesOpen
-20206.848705631342,-5828.0385527656745,7209.6892845260245,4485.033987168549,22641.937153570314,15129.09115899696,6711.513604106141,11946.2698037946,0.0,0.0,0.0,2019-03-17T21:29:29.831421,18,EyesOpen
-20091.06666935285,-5715.318705477561,7254.10220075872,4394.241201191092,22781.188521526878,14713.728691783988,6820.008971692201,11871.771439525062,0.0,0.0,0.0,2019-03-17T21:29:29.832075,18,EyesOpen
-20073.252329021972,-5679.555914349069,7347.197216415074,4589.774261686118,22810.22343757432,14957.25094762456,6861.538512890162,12026.490214644697,0.0,0.0,0.0,2019-03-17T21:29:29.837957,18,EyesOpen
-20193.035327557962,-5791.404043603426,7311.9261636646,4701.197707795824,22672.06730509607,15397.200333738368,6751.590281914507,12114.980770943257,0.0,0.0,0.0,2019-03-17T21:29:29.845862,18,EyesOpen
-20237.560002512935,-5840.980212805297,7207.968200202966,4512.012542726105,22619.272484692632,15205.668235500842,6685.809097982538,11960.84314117946,0.0,0.0,0.0,2019-03-17T21:29:29.846599,18,EyesOpen
-20127.142384903716,-5733.289508019628,7231.14695920312,4372.895285236274,22749.471396144796,14740.550785130357,6785.72139569776,11850.224357870145,0.0,0.0,0.0,2019-03-17T21:29:29.852492,18,EyesOpen
-20066.233881263004,-5663.842637996989,7337.9435942105765,4543.349688452446,22815.409042287953,14870.749696582521,6857.649309354939,11982.524333301108,0.0,0.0,0.0,2019-03-17T21:29:29.853185,18,EyesOpen
-20167.554338878912,-5760.513932766192,7333.45089357506,4708.5961352105305,22697.257721097198,15360.588176320574,6773.115011824967,12113.505555809208,0.014,1.02,0.192,2019-03-17T21:29:29.860565,18,EyesOpen
-20233.402578044246,-5839.39323894897,7235.125569716164,4569.4788777206995,22615.986778257702,15298.942065112838,6690.570019551518,11995.84597299647,0.0,0.0,0.0,2019-03-17T21:29:29.861247,18,EyesOpen
-20140.195803665614,-5751.372069283971,7223.301496899307,4383.601770830366,22720.280017886165,14800.341701548303,6762.810857631071,11846.156340379279,0.0,0.0,0.0,2019-03-17T21:29:29.868433,18,EyesOpen
-20053.02400028992,-5663.864989741443,7326.454797560549,4506.2010891677255,22818.314769067143,14803.962684150063,6855.771762820693,11944.347553771444,0.0,0.0,0.0,2019-03-17T21:29:29.869079,18,EyesOpen
-20136.105434430294,-5743.638365702434,7342.302184379361,4701.264763029189,22716.904904473413,15298.070347079081,6787.665997465372,12098.686349235339,0.0,0.0,0.0,2019-03-17T21:29:29.877066,18,EyesOpen
-20232.91083966623,-5838.856797082043,7238.791255806835,4606.4039595608665,22604.296815907575,15360.476417598298,6682.411632825331,12018.018903496135,0.0,0.0,0.0,2019-03-17T21:29:29.877797,18,EyesOpen
-20163.24045219904,-5770.460459048803,7206.291819368818,4399.359750671358,22685.768924447173,14874.28127220646,6735.139397995401,11852.459532315675,0.0,0.0,0.0,2019-03-17T21:29:29.883447,18,EyesOpen
-20052.666372378633,-5659.260530383651,7303.58896298277,4474.081632385449,22807.809449173146,14754.475921926014,6848.2168731947995,11914.016236545593,0.0,0.0,0.0,2019-03-17T21:29:29.884063,18,EyesOpen
-20110.199762606593,-5709.619010641457,7341.564576812337,4688.568972178576,22737.22264018329,15221.895601975395,6809.190727375833,12087.44342177432,0.0,0.0,0.0,2019-03-17T21:29:29.891296,18,EyesOpen
-20211.65433068923,-5804.949200743342,7259.041936283343,4656.449515396299,22616.411461402353,15418.367435737544,6703.690493546784,12065.426953485841,0.0,0.0,0.0,2019-03-17T21:29:29.892011,18,EyesOpen
-20180.317184962892,-5773.947331183831,7195.339464585718,4426.897099840296,22660.82437763505,14965.811665750942,6718.867328031937,11880.175695440257,0.01,1.02,0.188,2019-03-17T21:29:29.898382,18,EyesOpen
-20069.296070253382,-5671.397527622882,7269.524904432882,4428.171149274248,22791.51502746523,14710.040653948863,6826.870957239981,11882.142648952324,0.0,0.0,0.0,2019-03-17T21:29:29.905069,18,EyesOpen
-20095.35820428827,-5693.45869940027,7337.608318043747,4652.5379601166205,22761.250765472745,15121.648028093343,6819.472529825274,12062.029488328635,0.0,0.0,0.0,2019-03-17T21:29:29.905820,18,EyesOpen
-20203.27242651849,-5807.38554088897,7270.664843400103,4676.566085406075,22628.48140340822,15427.062264330658,6701.857650501448,12078.413317014376,0.0,0.0,0.0,2019-03-17T21:29:29.912488,18,EyesOpen
-20191.358946723813,-5805.664456565912,7193.350159329196,4453.830951908941,22650.028485063136,15056.112713350381,6699.063682444535,11902.370977684377,0.0,0.0,0.0,2019-03-17T21:29:29.913139,18,EyesOpen
-20081.500122725978,-5692.7434435777,7249.296575700829,4399.672675093731,22787.536416952185,14700.541162555357,6812.498785555218,11857.600433540396,0.0,0.0,0.0,2019-03-17T21:29:29.920823,18,EyesOpen
-20079.220244791537,-5676.449021869782,7329.718152251024,4611.321343341034,22793.012594343734,15023.859146101375,6834.2470329102325,12025.2385169552,0.0,0.0,0.0,2019-03-17T21:29:29.921530,18,EyesOpen
-20190.33076647887,-5786.374901100981,7272.7882591233565,4685.439727954832,22656.801063633095,15414.791156624695,6722.242441444689,12081.654319960395,0.0,0.0,0.0,2019-03-17T21:29:29.927974,18,EyesOpen
-20205.77582189749,-5811.297096168649,7181.302569067785,4478.596684765421,22634.0916912665,15139.194147490758,6680.08705140198,11914.418567945788,0.0,0.0,0.0,2019-03-17T21:29:29.928665,18,EyesOpen
-20098.107468856273,-5707.137967006918,7221.267488153874,4371.956511969151,22768.336268465075,14703.603351545735,6782.927427640847,11826.039770369503,0.0,0.0,0.0,2019-03-17T21:29:29.935396,18,EyesOpen
-20069.92191909813,-5675.197324180284,7315.189518355074,4559.353537482445,22799.673414191417,14915.944923871151,6827.832082251559,11971.057888395535,0.012,1.022,0.194,2019-03-17T21:29:29.936046,18,EyesOpen
-20183.200559997626,-5782.329235354571,7289.976750609488,4689.395986723422,22669.116874827967,15375.988528250282,6728.813854314549,12073.786505912127,0.0,0.0,0.0,2019-03-17T21:29:29.943445,18,EyesOpen
-20221.71261569412,-5826.742151587267,7196.881734953134,4523.501339376133,22618.04313874759,15227.327075878035,6667.681833229284,11942.090027581458,0.0,0.0,0.0,2019-03-17T21:29:29.944239,18,EyesOpen
-20109.864486439765,-5724.907603848887,7206.291819368818,4367.888494478285,22738.608448339517,14745.892852055176,6753.646642404395,11819.043674354993,0.0,0.0,0.0,2019-03-17T21:29:29.951408,18,EyesOpen
-20050.36414269974,-5658.835847239,7305.064178116821,4522.093179475449,22802.154457825956,14845.112245692284,6823.384085104953,11940.257184536122,0.0,0.0,0.0,2019-03-17T21:29:29.952053,18,EyesOpen
-20151.148158448716,-5742.1631505683845,7298.805689669334,4686.266742499679,22678.81753192157,15331.776777717683,6733.2842032056105,12072.244235544711,0.0,0.0,0.0,2019-03-17T21:29:29.957839,18,EyesOpen
-20234.073130377907,-5825.445750408859,7190.980874416933,4550.904578078339,22583.442638330776,15298.003291845715,6638.870434626393,11964.374716803399,0.0,0.0,0.0,2019-03-17T21:29:29.958556,18,EyesOpen
-20141.492204844024,-5741.5149499791805,7174.306473053274,4366.2121136441365,22685.92538665836,14805.750823706489,6709.680761060806,11814.416863252743,0.0,0.0,0.0,2019-03-17T21:29:29.965281,18,EyesOpen
-20049.984163043995,-5651.906806457854,7280.276093515885,4484.944580190728,22793.660794932937,14781.253311783472,6811.381198332453,11907.489527164642,0.0,0.0,0.0,2019-03-17T21:29:29.972982,18,EyesOpen
-20120.83919296732,-5721.532490436136,7310.853279930745,4689.395986723422,22710.3111398591,15278.199646258314,6759.078116307034,12076.28990129112,0.0,0.0,0.0,2019-03-17T21:29:29.973635,18,EyesOpen
-20218.561019725923,-5818.136729971973,7218.339409630229,4609.287334595601,22594.506751836154,15376.055583483647,6655.589539478963,12013.347388904976,0.012,1.02,0.194,2019-03-17T21:29:29.980985,18,EyesOpen
-20157.56310910739,-5756.04358387513,7176.765164943357,4397.839832048397,22672.29082254062,14894.151973027227,6704.562211580541,11843.272965344546,0.0,0.0,0.0,2019-03-17T21:29:29.982026,18,EyesOpen
-20056.77909335841,-5645.3130418435385,7265.635700897658,4450.3217280294575,22795.292472278175,14734.761683316432,6814.108111156001,11885.227189687157,0.0,0.0,0.0,2019-03-17T21:29:29.987721,18,EyesOpen
-20110.40092830669,-5695.537411634614,7304.348922294251,4654.01317525067,22729.801861024127,15186.62454922492,6777.719471182761,12055.52513069214,0.0,0.0,0.0,2019-03-17T21:29:29.988373,18,EyesOpen
-20219.14216508176,-5809.57601184559,7219.345238130718,4627.638116793409,22603.71567055174,15406.297493731678,6665.156086105834,12036.749665349684,0.0,0.0,0.0,2019-03-17T21:29:29.996208,18,EyesOpen
-20187.961481566606,-5793.482755837769,7156.290967022296,4403.561878628955,22645.2452117497,14978.641567068287,6678.813001968027,11857.3992678403,0.0,0.0,0.0,2019-03-17T21:29:29.996918,18,EyesOpen
-20068.15613128616,-5680.0029492381755,7233.449188882017,4399.806785560463,22780.897948848957,14701.05525267783,6791.3987387894085,11850.53728229252,0.0,0.0,0.0,2019-03-17T21:29:30.005204,18,EyesOpen
-20098.26393106746,-5692.877554044432,7305.801785683845,4617.803349233073,22757.853300315535,15092.210780645702,6791.041110878124,12026.624325111428,0.0,0.0,0.0,2019-03-17T21:29:30.005963,18,EyesOpen
-20224.841859917862,-5811.095930468551,7241.339354674739,4647.955852503283,22621.619417860442,15414.724101391328,6673.806211210038,12050.048953300591,0.0,0.0,0.0,2019-03-17T21:29:30.011388,18,EyesOpen
-20216.750528425044,-5811.431206635381,7163.063545592255,4430.853358608885,22634.739891855705,15064.092286120927,6663.658519227329,11876.755878538595,0.0,0.0,0.0,2019-03-17T21:29:30.012374,18,EyesOpen
-20089.077364096327,-5689.860068542966,7215.590145062226,4367.1508869112595,22772.896024333957,14689.700566494534,6773.003253102691,11823.066988356948,0.008,1.014,0.196,2019-03-17T21:29:30.018465,18,EyesOpen
-20071.799465632375,-5673.029204968119,7298.425710013594,4568.696566664764,22780.897948848957,14988.096354972882,6795.86908768047,11984.737156002184,0.0,0.0,0.0,2019-03-17T21:29:30.019114,18,EyesOpen
-20200.657272417222,-5789.794718002644,7253.901035058622,4656.293053185112,22646.854537350482,15402.005958796259,6686.904333460848,12058.34145049351,0.0,0.0,0.0,2019-03-17T21:29:30.025315,18,EyesOpen
-20231.167403598716,-5821.4671398958135,7159.666080435048,4460.603530478898,22616.52322012463,15155.108589542937,6639.876263126882,11902.21451547319,0.0,0.0,0.0,2019-03-17T21:29:30.033129,18,EyesOpen
-20114.714814986564,-5721.532490436136,7188.835106949224,4341.8487121878525,22747.54914612164,14701.09995616674,6736.547557896085,11804.515040459042,0.0,0.0,0.0,2019-03-17T21:29:30.033784,18,EyesOpen
-20071.374782487725,-5670.592864822491,7289.440308742561,4527.70346733373,22792.99024259928,14895.56013292791,6791.711663211783,11952.483588753175,0.0,0.0,0.0,2019-03-17T21:29:30.040417,18,EyesOpen
-20177.679679117166,-5761.497409522225,7266.395660209139,4664.116163744469,22659.95265960129,15365.57261533411,6691.173516651812,12064.644642429907,0.0,0.0,0.0,2019-03-17T21:29:30.041065,18,EyesOpen
-20228.596952986354,-5825.289288197671,7166.259845049363,4503.429472855267,22596.13842918139,15237.430064371832,6618.463291938698,11932.92581235478,0.0,0.0,0.0,2019-03-17T21:29:30.047929,18,EyesOpen
-20135.501937330002,-5736.999897599208,7161.6106822026595,4336.484293518579,22704.745555489728,14742.562442131335,6696.493231832174,11798.010682822549,0.0,0.0,0.0,2019-03-17T21:29:30.048578,18,EyesOpen
-20067.373820230227,-5665.02728045312,7258.304328716318,4476.652082997809,22776.472303446808,14809.103585374784,6772.489162980219,11910.596419643929,0.0,0.0,0.0,2019-03-17T21:29:30.056042,18,EyesOpen
-20152.198690438116,-5742.431371501848,7266.641529398147,4659.735221831229,22672.06730509607,15313.940085642349,6703.444624357775,12061.917729606359,0.004,1.016,0.202,2019-03-17T21:29:30.056753,18,EyesOpen
-20239.05756939144,-5827.189186476372,7165.812810160257,4540.890996562362,22576.55830103854,15317.605771733019,6612.182451746757,11970.096763383957,0.0,0.0,0.0,2019-03-17T21:29:30.063158,18,EyesOpen
-20157.160777707195,-5750.075668105563,7143.215196515942,4341.356973809836,22669.519206228164,14819.787719224421,6672.956844920736,11812.025226596026,0.0,0.0,0.0,2019-03-17T21:29:30.063883,18,EyesOpen
-20066.144474285185,-5662.12155367393,7240.087656985243,4435.2343005221255,22773.812445856627,14757.202834749562,6770.790430401616,11884.757803053595,0.0,0.0,0.0,2019-03-17T21:29:30.071317,18,EyesOpen
-20137.55829781989,-5718.850281101499,7272.654148656625,4643.843131523506,22693.122648372966,15246.482520876232,6722.3094966780545,12053.826398113537,0.0,0.0,0.0,2019-03-17T21:29:30.072221,18,EyesOpen
-20233.871964677808,-5815.163947959417,7183.314226068763,4577.369043513423,22578.12292315041,15375.005051494249,6617.88214658286,12000.47278409872,0.0,0.0,0.0,2019-03-17T21:29:30.078385,18,EyesOpen
-20170.638879613743,-5768.4040985589145,7140.957670325955,4364.088697920883,22648.15093852889,14904.567885943401,6658.964652891714,11826.665619214251,0.0,0.0,0.0,2019-03-17T21:29:30.078870,18,EyesOpen
-20069.69840165358,-5663.5073618301585,7227.928308001556,4403.673637351231,22773.052486545144,14711.113537682717,6767.52707571114,11853.666526516263,0.0,0.0,0.0,2019-03-17T21:29:30.085332,18,EyesOpen
-20116.16767837616,-5700.231277970229,7287.24983778594,4626.073494681536,22726.449099355832,15157.4778744552,6746.71760162325,12031.80992982506,0.0,0.0,0.0,2019-03-17T21:29:30.093188,18,EyesOpen
-20229.37926404229,-5808.972514745297,7210.9186304710665,4618.071570166537,22595.333766380998,15402.698862874373,6633.729533401673,12023.070397743035,0.0,0.0,0.0,2019-03-17T21:29:30.093536,18,EyesOpen
-20199.629092172276,-5782.306883610116,7139.124827280621,4393.3247796684245,22627.386167929908,14980.921445002728,6638.758675904117,11838.668505986752,0.004,1.02,0.196,2019-03-17T21:29:30.099968,18,EyesOpen
-20078.50498896897,-5674.526771846625,7209.555174059293,4376.002177715562,22765.274079474697,14678.010604144409,6751.411467958864,11822.262325556556,0.0,0.0,0.0,2019-03-17T21:29:30.100452,18,EyesOpen
-20099.985015390517,-5691.782318566122,7283.047709828343,4598.513793768143,22749.516099633707,15056.023306372561,6757.334680239521,11999.981045720702,0.0,0.0,0.0,2019-03-17T21:29:30.108208,18,EyesOpen
-20216.079976091383,-5815.633334592979,7219.613459064181,4645.765381546662,22609.638882832394,15404.464650686343,6641.0162020941025,12037.509624661163,0.0,0.0,0.0,2019-03-17T21:29:30.108907,18,EyesOpen
-20223.366644783815,-5819.5225381282025,7133.894519078079,4428.841701607907,22605.414403130344,15077.570388027478,6616.541041915541,11868.39632611231,0.0,0.0,0.0,2019-03-17T21:29:30.116366,18,EyesOpen
-20108.813954450365,-5698.13021399143,7178.776821944335,4350.2976715919585,22739.100186717533,14683.822057702788,6724.388208912398,11806.86197362685,0.0,0.0,0.0,2019-03-17T21:29:30.117018,18,EyesOpen
-20084.361146016257,-5673.230370668218,7269.413145710605,4558.28065374859,22761.541338150662,14967.756267518553,6761.5815116860285,11973.740097730173,0.0,0.0,0.0,2019-03-17T21:29:30.122845,18,EyesOpen
-20202.177191040184,-5784.2514853777275,7233.71740981548,4663.602073621997,22626.179173729324,15398.51908666123,6656.975347635192,12060.91190110587,0.0,0.0,0.0,2019-03-17T21:29:30.123490,18,EyesOpen
-20241.628020003798,-5833.604137135046,7133.738056866891,4467.21964683767,22582.056830174548,15172.677060684808,6601.721835341673,11906.282532964056,0.0,0.0,0.0,2019-03-17T21:29:30.130697,18,EyesOpen
-20125.689521514123,-5722.515967192169,7157.497961222883,4336.797217940953,22711.78635499315,14715.33801738477,6698.393130110876,11803.442156725188,0.0,0.0,0.0,2019-03-17T21:29:30.131151,18,EyesOpen
-20069.474884209023,-5663.127382174419,7261.433572940061,4515.052379972027,22769.833835343583,14885.121868267282,6764.330776254032,11948.03559160657,0.008,1.018,0.198,2019-03-17T21:29:30.138917,18,EyesOpen
-20178.70785936211,-5763.620825245479,7245.742648332435,4662.640948610419,22644.641714649406,15363.292737399666,6670.900484430848,12070.880779132936,0.0,0.0,0.0,2019-03-17T21:29:30.139570,18,EyesOpen
-20239.23638334708,-5830.586651633579,7146.076219806221,4506.804586268018,22572.93731843678,15264.632137373941,6594.010483504592,11944.861643893915,0.0,0.0,0.0,2019-03-17T21:29:30.146086,18,EyesOpen
-20148.644763069722,-5736.150531309907,7150.099533808177,4338.183026097182,22687.646470981417,14771.440895967591,6675.7061094887395,11805.72203465963,0.0,0.0,0.0,2019-03-17T21:29:30.152430,18,EyesOpen
-20081.388364003702,-5652.331489602505,7253.297537958329,4471.444126539723,22770.54909116615,14811.137594120217,6761.62621517494,11912.652780133818,0.0,0.0,0.0,2019-03-17T21:29:30.153124,18,EyesOpen
-20161.631126598255,-5733.155397552896,7270.776602122379,4660.629291609442,22672.268470796167,15314.588286231554,6699.488365589186,12069.405563998887,0.0,0.0,0.0,2019-03-17T21:29:30.161960,18,EyesOpen
-20231.457976276633,-5811.5429653576575,7180.56496150076,4560.672290405309,22578.905234206348,15351.89334772746,6613.858832580904,11991.956769461247,0.0,0.0,0.0,2019-03-17T21:29:30.162905,18,EyesOpen
-20146.208422924094,-5726.56163293858,7156.827408889224,4362.255854875548,22675.48712199773,14862.121923222772,6677.337786833977,11833.035866384014,0.0,0.0,0.0,2019-03-17T21:29:30.168495,18,EyesOpen
-20047.43606417609,-5633.556024260048,7253.029317024865,4448.064201839471,22789.65983267544,14770.882102356209,6783.128593340945,11901.029873017058,0.0,0.0,0.0,2019-03-17T21:29:30.169163,18,EyesOpen
-20125.197783136104,-5708.4120164408705,7279.873762115689,4648.514646114665,22705.058479912102,15242.146282451902,6730.199662470778,12061.582453439529,0.0,0.0,0.0,2019-03-17T21:29:30.175581,18,EyesOpen
-20235.056607133938,-5824.529328886191,7183.984778402421,4584.074566850015,22580.715725507227,15387.678490600407,6617.233945993656,12008.675874313818,0.01,1.02,0.192,2019-03-17T21:29:30.176480,18,EyesOpen
-20192.52123743549,-5785.52553481168,7123.299792206263,4352.734011737587,22634.24815347769,14917.822470405397,6638.937489859759,11820.921220889239,0.0,0.0,0.0,2019-03-17T21:29:30.183101,18,EyesOpen
-20094.30767229887,-5676.024338725131,7195.942961686011,4373.878761992307,22755.953402036837,14693.43330781857,6741.397886442886,11831.247726827589,0.0,0.0,0.0,2019-03-17T21:29:30.183772,18,EyesOpen
-20133.892611729218,-5700.477147159237,7252.895206558133,4595.049273377571,22709.573532292074,15123.369112416402,6721.124854221923,12008.653522569362,0.0,0.0,0.0,2019-03-17T21:29:30.191071,18,EyesOpen
-20235.458938534135,-5796.3437791280485,7185.594104003204,4606.113386882947,22580.939242951783,15400.933075062405,6609.455538923209,12016.163708706345,0.0,0.0,0.0,2019-03-17T21:29:30.191876,18,EyesOpen
-20206.178153297682,-5797.595476817546,7112.749768823358,4383.2888464079915,22601.771068784128,15002.334416190914,6606.281591210555,11837.349753063889,0.0,0.0,0.0,2019-03-17T21:29:30.198269,18,EyesOpen
-20089.7926199189,-5695.805632568077,7177.882752166123,4349.045973902461,22734.808651782114,14674.344918053737,6715.80513904156,11806.14671780428,0.0,0.0,0.0,2019-03-17T21:29:30.198974,18,EyesOpen
-20104.79064044841,-5686.641417341401,7258.930177561067,4568.920084109317,22728.997198223737,15036.197309040703,6731.339601437999,11986.145315902868,0.0,0.0,0.0,2019-03-17T21:29:30.204855,18,EyesOpen
-20219.633903459777,-5794.823860505087,7201.083862910732,4625.559404559065,22590.192865156278,15406.47630768732,6615.266992481589,12033.888642059404,0.0,0.0,0.0,2019-03-17T21:29:30.205541,18,EyesOpen
-20230.04981637595,-5807.430244377881,7113.576783368205,4415.765931101552,22577.362963838932,15100.637388305353,6581.717024054173,11865.2000266552,0.0,0.0,0.0,2019-03-17T21:29:30.214585,18,EyesOpen
-20108.903361428187,-5691.067062743552,7161.565978713749,4330.650488215743,22714.803840494616,14691.153429884129,6688.2677898726215,11794.233238009601,0.01,1.018,0.194,2019-03-17T21:29:30.220636,18,EyesOpen
-20082.97533786003,-5658.858198983455,7258.304328716318,4528.597537111943,22747.30327693263,14946.589165519377,6735.899357306881,11957.356269044432,0.0,0.0,0.0,2019-03-17T21:29:30.221358,18,EyesOpen
-20208.323920765393,-5777.836534719055,7223.927345744056,4636.4447041088,22613.52808636762,15386.315034188634,6633.282498512566,12051.233595756721,0.0,0.0,0.0,2019-03-17T21:29:30.227846,18,EyesOpen
-20245.696037494665,-5823.389389918971,7127.07723701921,4456.624919965854,22568.176396867802,15197.018110396637,6576.442012362721,11906.617809130885,0.0,0.0,0.0,2019-03-17T21:29:30.228494,18,EyesOpen
-20130.472794827558,-5712.144757764907,7147.059696562254,4323.073246845394,22698.15179087541,14730.157223958638,6673.3591763209315,11796.244895010579,0.0,0.0,0.0,2019-03-17T21:29:30.236669,18,EyesOpen
-20081.656584937165,-5659.260530383651,7241.585223863748,4482.21766736718,22754.053503758136,14861.317260422382,6734.871177061937,11922.912230838803,0.0,0.0,0.0,2019-03-17T21:29:30.237439,18,EyesOpen
-20186.32980422137,-5756.04358387513,7230.364648147184,4634.29893664109,22630.314246453556,15342.75148424524,6644.905405629326,12046.875005587937,0.0,0.0,0.0,2019-03-17T21:29:30.243439,18,EyesOpen
-20247.506528795544,-5820.863642795521,7129.312411464741,4492.901801216817,22551.85962341543,15272.611710144487,6563.880331978838,11931.875280365382,0.0,0.0,0.0,2019-03-17T21:29:30.244321,18,EyesOpen
-20150.343495648325,-5728.550938195102,7124.819710829224,4318.647601443244,22663.305421269586,14775.620672180734,6643.1843213062675,11789.204095507157,0.0,0.0,0.0,2019-03-17T21:29:30.251550,18,EyesOpen
-20067.798503374877,-5644.754248232156,7227.794197534824,4443.906777370784,22752.39947466844,14784.181390307116,6733.485368905708,11888.06586123298,0.0,0.0,0.0,2019-03-17T21:29:30.252199,18,EyesOpen
-20149.672943314665,-5718.93968807932,7246.390848921639,4637.361125631467,22653.448301964796,15278.065535791582,6666.832466939983,12041.354124707475,0.014,1.016,0.196,2019-03-17T21:29:30.258095,18,EyesOpen
-20239.90693568074,-5823.903480041442,7149.4066297300615,4541.092162262459,22551.85962341543,15336.94003068686,6566.294320380011,11962.56422550252,0.0,0.0,0.0,2019-03-17T21:29:30.258745,18,EyesOpen
-20181.188902996648,-5775.1543253844175,7110.6040013556485,4324.436703257168,22628.23553421921,14835.657457787689,6611.780120346561,11785.896037327771,0.0,0.0,0.0,2019-03-17T21:29:30.266085,18,EyesOpen
-20084.24938729398,-5667.865951998943,7202.42496757805,4391.804861045463,22743.078797230577,14709.48186033748,6715.983952997202,11838.802616453484,0.0,0.0,0.0,2019-03-17T21:29:30.267010,18,EyesOpen
-20139.525251331957,-5703.651094871891,7249.028354767365,4608.057988650559,22681.075058111557,15185.10463060196,6684.445641570765,12017.974200007226,0.0,0.0,0.0,2019-03-17T21:29:30.274771,18,EyesOpen
-20250.72517999711,-5817.644991593957,7154.078144321221,4556.984252570182,22552.46312051572,15362.376315877,6570.094116937414,11980.803248978049,0.0,0.0,0.0,2019-03-17T21:29:30.282225,18,EyesOpen
-20207.720423665098,-5788.699482524334,7095.807146526236,4335.254947573537,22603.067469962534,14913.486231981067,6592.714082326184,11801.408147979755,0.0,0.0,0.0,2019-03-17T21:29:30.283138,18,EyesOpen
-20097.191047333607,-5680.114707960452,7179.648539978092,4348.330718079891,22733.512250603708,14672.869702919686,6705.478633103208,11811.95817136266,0.0,0.0,0.0,2019-03-17T21:29:30.288751,18,EyesOpen
-20120.70508250059,-5696.900868046388,7250.212997223497,4573.4127847448335,22702.622139766474,15091.361414356401,6700.874173745415,11997.723519530717,0.0,0.0,0.0,2019-03-17T21:29:30.289403,18,EyesOpen
-20233.849612933354,-5810.023046734696,7182.643673735103,4593.708168710252,22573.60787077044,15393.065261014137,6589.361320657888,12018.935325018803,0.0,0.0,0.0,2019-03-17T21:29:30.295750,18,EyesOpen
-20211.47551673359,-5798.713064040311,7102.467966373917,4373.141154425282,22587.443600588274,15016.080739030927,6577.626654818851,11841.283660088022,0.0,0.0,0.0,2019-03-17T21:29:30.296486,18,EyesOpen
-20086.864541395254,-5677.253684670172,7164.3152432817515,4334.025601628495,22721.911695231403,14675.216636087494,6687.753699750149,11808.024264338526,0.014,1.014,0.194,2019-03-17T21:29:30.303286,18,EyesOpen
-20096.341681044305,-5672.492763101192,7246.949642533022,4550.859874589429,22718.670692285385,15010.291637217002,6705.009246469646,11982.99371993467,0.0,0.0,0.0,2019-03-17T21:29:30.303745,18,EyesOpen
-20226.6747029632,-5793.728625026778,7193.104290140187,4622.653677779875,22578.52525455061,15396.038043026692,6589.87541078036,12042.427008441331,0.0,0.0,0.0,2019-03-17T21:29:30.310652,18,EyesOpen
-20236.643580990265,-5810.358322901527,7105.9771902534,4424.930146328228,22561.493225275663,15118.474080380689,6554.604358029886,11881.583855340941,0.0,0.0,0.0,2019-03-17T21:29:30.311301,18,EyesOpen
-20116.07827139834,-5691.245876699195,7147.12675179562,4325.397828268746,22697.436535052842,14694.550895041335,6659.121115102901,11801.09522355738,0.0,0.0,0.0,2019-03-17T21:29:30.318434,18,EyesOpen
-20087.713907684556,-5656.1089344154525,7244.222729709474,4517.4663683732,22731.098262202533,14918.202450061137,6706.730330792705,11954.517597498609,0.0,0.0,0.0,2019-03-17T21:29:30.319145,18,EyesOpen
-20193.504714191524,-5760.849208933021,7219.233479408441,4649.073439726048,22604.72149905223,15372.23343518179,6610.059036023502,12060.017831327657,0.0,0.0,0.0,2019-03-17T21:29:30.326332,18,EyesOpen
-20241.784482214985,-5823.210575963328,7116.773082825313,4476.585027764443,22543.83534715597,15202.494287788188,6542.19913985719,11916.810204602505,0.0,0.0,0.0,2019-03-17T21:29:30.327024,18,EyesOpen
-20130.31633261637,-5716.995086311708,7131.055847532255,4330.918709149207,22668.803950405592,14725.128081456196,6633.1483880458345,11798.882400856304,0.0,0.0,0.0,2019-03-17T21:29:30.333443,18,EyesOpen
-20073.654660422166,-5653.471428569726,7228.196528935019,4486.933885447251,22734.942762248847,14826.113262905272,6703.601086568962,11923.716893639195,0.0,0.0,0.0,2019-03-17T21:29:30.340296,18,EyesOpen
-20170.527120891467,-5734.697667920312,7226.028409722854,4658.68468984183,22620.85945854896,15314.253010064724,6620.094969283935,12060.129590049934,0.01,1.02,0.192,2019-03-17T21:29:30.340911,18,EyesOpen
-20246.85832820634,-5807.832575778077,7125.177338740509,4526.407066155322,22534.55937320702,15275.226864245757,6532.252613574578,11953.288251553566,0.0,0.0,0.0,2019-03-17T21:29:30.347852,18,EyesOpen
-20165.6097371113,-5742.587833713035,7106.088948975676,4335.366706295813,22632.281199965622,14771.150323289672,6597.273838195067,11797.76481363354,0.0,0.0,0.0,2019-03-17T21:29:30.348609,18,EyesOpen
-20069.005497575465,-5649.895149456876,7214.450206095005,4456.066126354472,22735.814480282603,14752.01723003593,6695.08507193149,11891.955064768204,0.0,0.0,0.0,2019-03-17T21:29:30.355848,18,EyesOpen
-20139.815824009875,-5715.028132799642,7240.020601751877,4659.243483453212,22651.458996708276,15245.700209820297,6641.060905583014,12060.129590049934,0.0,0.0,0.0,2019-03-17T21:29:30.356564,18,EyesOpen
-20237.515299024024,-5810.715950812812,7142.321126737729,4577.838430146984,22541.868393643905,15334.70485624133,6541.349773567888,11999.578714320507,0.0,0.0,0.0,2019-03-17T21:29:30.362988,18,EyesOpen
-20181.14419950774,-5755.4847902637475,7095.047187214755,4361.227674630603,22610.152972954867,14844.911079992185,6578.833649019439,11826.19623258069,0.0,0.0,0.0,2019-03-17T21:29:30.363928,18,EyesOpen
-20076.850959879277,-5649.939852945788,7185.281179580829,4419.744541614597,22730.673579057882,14692.606293273724,6684.266827615122,11872.039660458526,0.0,0.0,0.0,2019-03-17T21:29:30.370617,18,EyesOpen
-20131.590382050323,-5698.979580280731,7231.5269388588595,4639.3951343768995,22668.58043296104,15154.99683082066,6649.800437665038,12050.317174234055,0.0,0.0,0.0,2019-03-17T21:29:30.371342,18,EyesOpen
-20241.158633370236,-5806.335008899571,7142.678754649014,4612.461282308255,22540.1696610653,15367.539568846176,6534.487788020109,12032.256964714166,0.0,0.0,0.0,2019-03-17T21:29:30.378517,18,EyesOpen
-20209.03917658796,-5777.098927152029,7079.713890518415,4386.9321807542065,22583.777914497605,14932.038179878973,6548.077648648936,11854.359430594377,0.008,1.018,0.196,2019-03-17T21:29:30.379168,18,EyesOpen
-20090.574930974835,-5660.9816147067095,7158.727307167925,4385.613427831344,22717.01666319569,14666.18653132755,6660.641033725862,11855.544073050509,0.0,0.0,0.0,2019-03-17T21:29:30.386792,18,EyesOpen
-20107.07051838285,-5674.213847424251,7233.091560970732,4610.494328796188,22693.279110584153,15067.713268722686,6659.545798247552,12039.43187468432,0.0,0.0,0.0,2019-03-17T21:29:30.387538,18,EyesOpen
-20227.032330874485,-5792.096947681541,7162.772972914336,4639.238672165713,22553.021914127105,15382.381127164499,6540.612166000863,12061.62715692844,0.0,0.0,0.0,2019-03-17T21:29:30.392934,18,EyesOpen
-20216.750528425044,-5787.693654023845,7083.759556264825,4424.661925394765,22561.292059575568,15028.061274058971,6526.329401293922,11887.507067621598,0.0,0.0,0.0,2019-03-17T21:29:30.400757,18,EyesOpen
-20089.323233285337,-5676.627835825424,7136.956708068456,4361.853523475352,22695.089601885036,14654.608327699701,6632.589594434452,11834.108750117868,0.0,0.0,0.0,2019-03-17T21:29:30.401423,18,EyesOpen
-20088.45151525158,-5664.401431608371,7224.150863188608,4572.742232411174,22705.77373573467,14963.956470961151,6660.551626748041,12002.439737610786,0.0,0.0,0.0,2019-03-17T21:29:30.408028,18,EyesOpen
-20207.899237620742,-5770.371052070982,7179.827353933734,4664.518495144665,22567.349382322955,15371.94286250387,6549.374049827344,12072.870084389458,0.0,0.0,0.0,2019-03-17T21:29:30.408727,18,EyesOpen
-20225.020673873507,-5793.303941882127,7085.793565010258,4464.738603203131,22539.096777331448,15117.200030946737,6504.648209172275,11912.988056300648,0.0,0.0,0.0,2019-03-17T21:29:30.416121,18,EyesOpen
-20108.903361428187,-5679.60061783798,7122.5174811503275,4355.10329664985,22674.52599698615,14675.060173876307,6610.729588357161,11825.86095641386,0.0,0.0,0.0,2019-03-17T21:29:30.416639,18,EyesOpen
-20079.711983169556,-5643.010812164643,7211.924458971555,4531.570319124498,22710.579360792563,14865.161760468694,6655.522484245597,11964.218254592211,0.014,1.018,0.192,2019-03-17T21:29:30.422812,18,EyesOpen
-20178.23847272855,-5752.981394884753,7193.148993629097,4667.580684135042,22587.62241454392,15329.407492805421,6560.706384266185,12076.62517745795,0.0,0.0,0.0,2019-03-17T21:29:30.423845,18,EyesOpen
-20234.631923989287,-5816.281535182183,7093.080233702688,4499.875545486873,22522.17650677878,15190.156124848858,6487.839697341883,11942.961745615214,0.0,0.0,0.0,2019-03-17T21:29:30.430698,18,EyesOpen
-20136.26189664148,-5710.468376930759,7098.154079694043,4339.904110420241,22642.227726248235,14702.86574397871,6576.643178062818,11815.62385745333,0.0,0.0,0.0,2019-03-17T21:29:30.431757,18,EyesOpen
-20062.88111959471,-5637.109951628441,7201.374435588651,4491.22542038267,22724.325683632575,14783.510837973457,6659.255225569633,11938.290231024055,0.0,0.0,0.0,2019-03-17T21:29:30.438921,18,EyesOpen
-20164.60390861081,-5732.797769641611,7196.166479130564,4662.149210232403,22605.973196741725,15273.25991073369,6573.3351198834325,12077.72041293626,0.0,0.0,0.0,2019-03-17T21:29:30.439572,18,EyesOpen
-20243.170290371214,-5813.487567125269,7093.013178469322,4539.4828366616775,22514.755727619617,15264.520378651665,6484.9339705626935,11982.65844376784,0.0,0.0,0.0,2019-03-17T21:29:30.445954,18,EyesOpen
-20155.19382419513,-5730.808464385088,7076.15996315002,4348.688345991176,22618.110193980956,14770.569177933834,6555.967814441659,11833.639363484308,0.0,0.0,0.0,2019-03-17T21:29:30.446759,18,EyesOpen
-20072.82764587732,-5645.02246916562,7172.272464307841,4443.437390737223,22715.340282361543,14715.539183084868,6650.4039347653315,11911.088158021947,0.0,0.0,0.0,2019-03-17T21:29:30.452541,18,EyesOpen
-20149.069446214373,-5717.9785630677425,7199.005150676388,4647.039430980615,22628.034368519115,15203.522468033132,6595.485698638642,12077.653357702895,0.0,0.0,0.0,2019-03-17T21:29:30.453235,18,EyesOpen
-20243.43851130468,-5817.622639849501,7104.770196052814,4574.597427200964,22515.60509390892,15320.153870600925,6491.751252621562,12023.450377398774,0.014,1.016,0.19,2019-03-17T21:29:30.460706,18,EyesOpen
-20186.128638521273,-5763.889046178943,7057.809180952214,4355.5279797945,22587.354193610456,14844.709914292089,6533.9513461531815,11848.547977035998,0.0,0.0,0.0,2019-03-17T21:29:30.468579,18,EyesOpen
-20082.41654424865,-5662.948568218776,7143.773990127324,4392.25189593457,22707.226599124268,14661.693830692033,6637.596385192441,11876.666471560773,0.0,0.0,0.0,2019-03-17T21:29:30.469499,18,EyesOpen
-20125.42130058066,-5703.405225682882,7198.513412298372,4609.443796806789,22653.738874642717,15106.314731397002,6610.327256956966,12051.47946494573,0.0,0.0,0.0,2019-03-17T21:29:30.475783,18,EyesOpen
-20234.877793178297,-5809.151328700939,7118.516518892828,4593.127023354415,22522.40002422333,15339.443426065855,6496.489822446088,12037.464921172254,0.0,0.0,0.0,2019-03-17T21:29:30.476458,18,EyesOpen
-20215.834106902374,-5793.1698314153955,7045.4486662684285,4358.210189129137,22549.73620769217,14910.602856946332,6495.461642201143,11846.558671779476,0.0,0.0,0.0,2019-03-17T21:29:30.483187,18,EyesOpen
-20095.73818394401,-5671.93396948981,7120.192899726975,4347.0119651570285,22690.462790782785,14616.185678981028,6612.785948847049,11835.941593163205,0.0,0.0,0.0,2019-03-17T21:29:30.484212,18,EyesOpen
-20106.06468988236,-5681.969902750243,7192.478441295439,4571.848162632962,22672.469636496262,14994.980692265117,6616.295172726533,12013.682665071807,0.0,0.0,0.0,2019-03-17T21:29:30.491076,18,EyesOpen
-20229.178098342192,-5803.0940059535515,7130.228832987408,4618.943288200294,22534.22409704019,15338.83992896556,6501.295447503978,12048.081999788523,0.0,0.0,0.0,2019-03-17T21:29:30.492030,18,EyesOpen
-20239.19167985817,-5815.38746540397,7039.659564454504,4396.230506447614,22529.08319581547,14997.238218455102,6471.008833767037,11865.602358055397,0.0,0.0,0.0,2019-03-17T21:29:30.498248,18,EyesOpen
-20114.759518475475,-5694.643341856402,7089.883934245579,4319.988706110562,22665.071209081558,14604.048681741797,6578.140744941324,11801.251685768568,0.014,1.016,0.192,2019-03-17T21:29:30.498957,18,EyesOpen
-20093.391250776203,-5659.037012939098,7183.560095257771,4529.4469034012445,22687.53471225914,14895.984816072561,6621.123149528879,11975.617644264417,0.0,0.0,0.0,2019-03-17T21:29:30.505842,18,EyesOpen
-20212.056662089428,-5769.052299148118,7141.561167426249,4627.749875515685,22550.250297814644,15324.64657123644,6514.2818110325115,12060.062534816569,0.0,0.0,0.0,2019-03-17T21:29:30.506533,18,EyesOpen
-20230.072168120405,-5807.7878722891655,7048.77907619227,4433.759085388075,22514.82278285298,15095.742356269642,6463.141019718769,11906.997788786626,0.0,0.0,0.0,2019-03-17T21:29:30.513529,18,EyesOpen
-20118.626370266244,-5707.406187940382,7075.198838138443,4305.013037325506,22642.71946462625,14632.077769288751,6564.282663379034,11807.554877704964,0.0,0.0,0.0,2019-03-17T21:29:30.513975,18,EyesOpen
-20078.97437560253,-5650.208073879251,7174.8205631757455,4487.693844758731,22696.274244341166,14805.303788817382,6631.896690356338,11954.808170176528,0.0,0.0,0.0,2019-03-17T21:29:30.520583,18,EyesOpen
-20183.75935360901,-5743.325441280061,7167.265673549852,4645.3183466575565,22578.257033617145,15286.983881829248,6548.636442260318,12084.58239848404,0.0,0.0,0.0,2019-03-17T21:29:30.527585,18,EyesOpen
-20242.499738037557,-5818.069674738607,7066.012271167311,4487.582086036455,22506.55263740452,15178.443810754277,6472.8416768123725,11960.574920245996,0.0,0.0,0.0,2019-03-17T21:29:30.527995,18,EyesOpen
-20145.94020199063,-5715.6316298999345,7067.979224679378,4315.406598497224,22625.687435351305,14685.632549003667,6558.180637142735,11825.480976758121,0.0,0.0,0.0,2019-03-17T21:29:30.534955,18,EyesOpen
-20071.330078998813,-5637.35582081745,7168.942054384,4447.773629161552,22711.182857892854,14727.586773346278,6640.3680015048985,11930.511823953608,0.0,0.0,0.0,2019-03-17T21:29:30.535262,18,EyesOpen
-20161.56407136489,-5733.334211508538,7177.3463102991955,4630.700305783786,22607.42606013132,15224.242535143201,6567.3001488805,12078.34626178101,0.018000000000000002,1.016,0.196,2019-03-17T21:29:30.543220,18,EyesOpen
-20245.96425842813,-5821.780064318188,7079.065689929211,4517.309906162012,22508.854867083417,15244.649677830897,6469.5559703774425,11986.815868236527,0.0,0.0,0.0,2019-03-17T21:29:30.543801,18,EyesOpen
-20168.493112146036,-5755.417735030382,7047.0132883803,4307.605839682322,22594.774972769617,14742.6294973647,6519.467415746143,11815.757967920063,0.0,0.0,0.0,2019-03-17T21:29:30.551289,18,EyesOpen
-20070.54776794288,-5656.533617560103,7135.973231312422,4387.446270876679,22700.118744387477,14649.579185197257,6614.97641980367,11873.917206992772,0.0,0.0,0.0,2019-03-17T21:29:30.551870,18,EyesOpen
-20123.208477879583,-5699.896001803399,7179.246208577897,4601.017189147137,22636.215106989755,15135.595516633453,6581.046471720514,12049.221938755743,0.0,0.0,0.0,2019-03-17T21:29:30.559426,18,EyesOpen
-20224.171307584205,-5805.753863543733,7086.68763478847,4547.484761176677,22516.27564624258,15286.179219028858,6472.126420989803,12004.943132989782,0.0,0.0,0.0,2019-03-17T21:29:30.560073,18,EyesOpen
-20188.69908913363,-5775.064918406596,7020.928802600957,4318.446435743146,22562.119074120412,14814.512707532967,6489.024339798015,11814.77449116403,0.0,0.0,0.0,2019-03-17T21:29:30.568882,18,EyesOpen
-20074.97341334503,-5663.753231019167,7105.641914086571,4350.923520436707,22692.38504080594,14609.278989944338,6603.264105709089,11837.327401319433,0.0,0.0,0.0,2019-03-17T21:29:30.569535,18,EyesOpen
-20106.534076515924,-5690.351806920982,7161.342461269196,4571.848162632962,22646.653371650384,15045.719152178664,6586.030910734047,12017.057778484557,0.0,0.0,0.0,2019-03-17T21:29:30.575308,18,EyesOpen
-20237.6270577463,-5813.15229095844,7076.338777105663,4562.751002639652,22505.099774014925,15305.088794838048,6464.8621040418275,12013.459147627253,0.0,0.0,0.0,2019-03-17T21:29:30.576031,18,EyesOpen
-20213.509525479025,-5791.091119181052,7003.203869247898,4339.769999953509,22532.3689022504,14908.926476112185,6467.454906398643,11837.103883874881,0.012,1.016,0.196,2019-03-17T21:29:30.581712,18,EyesOpen
-20094.866465910254,-5675.845524769488,7065.609939767116,4304.498947203034,22663.841863136517,14584.714422787956,6575.883218751338,11809.924162617226,0.0,0.0,0.0,2019-03-17T21:29:30.587594,18,EyesOpen
-20097.727489200533,-5677.9465887482875,7149.876016363623,4525.244775443647,22660.422046234853,14947.527938786501,6594.524573627064,11992.068528183525,0.0,0.0,0.0,2019-03-17T21:29:30.588258,18,EyesOpen
-20210.939074866663,-5790.666436036401,7095.158945937032,4583.135793582892,22521.97534107868,15312.822498419584,6480.776546094006,12040.661220629361,0.0,0.0,0.0,2019-03-17T21:29:30.595796,18,EyesOpen
-20207.519257965,-5796.120261683495,7013.888003097535,4378.147945183271,22512.07351828498,15007.832945326918,6454.870874270306,11873.358413381387,0.0,0.0,0.0,2019-03-17T21:29:30.596738,18,EyesOpen
-20091.87133215324,-5677.052518970075,7060.178465864476,4294.261848242503,22649.33558098502,14600.070071228753,6564.3497186124,11801.251685768568,0.0,0.0,0.0,2019-03-17T21:29:30.603755,18,EyesOpen
-20076.87331162373,-5644.1954546207735,7152.468818720439,4497.483908830155,22675.1518458309,14858.947975510118,6604.202878976212,11962.072487124502,0.0,0.0,0.0,2019-03-17T21:29:30.604409,18,EyesOpen
-20199.025595071984,-5752.221435573272,7115.946068280467,4611.991895674693,22539.566163965006,15300.685501180353,6498.188555024691,12052.015906812658,0.0,0.0,0.0,2019-03-17T21:29:30.610693,18,EyesOpen
-20229.15574659774,-5811.945296757853,7020.638229923038,4431.25569000908,22495.600282621417,15105.93475174126,6441.504531086031,11901.722777095172,0.0,0.0,0.0,2019-03-17T21:29:30.611344,18,EyesOpen
-20118.335797588326,-5718.4479497013035,7039.950137132423,4297.011112810506,22625.508621395664,14636.65987690209,6534.756008953573,11787.61712165083,0.0,0.0,0.0,2019-03-17T21:29:30.618313,18,EyesOpen
-20064.266927750938,-5655.013698937142,7143.505769193861,4467.4655160266775,22686.595938992017,14778.012308837451,6603.599381875919,11924.432149461765,0.01,1.018,0.188,2019-03-17T21:29:30.619090,18,EyesOpen
-20178.082010517363,-5749.338060538538,7132.754580110858,4625.425294092333,22566.164739866825,15264.11804725147,6518.171014567735,12054.161674280367,0.0,0.0,0.0,2019-03-17T21:29:30.626835,18,EyesOpen
-20248.24413636257,-5817.443825893859,7024.683895669448,4476.987359164638,22482.010421992592,15184.344671290479,6429.792216991451,11930.936507098259,0.0,0.0,0.0,2019-03-17T21:29:30.627545,18,EyesOpen
-20141.536908332935,-5721.286621247127,7022.761645646292,4302.554345435422,22594.462048347243,14690.661691506111,6509.498537719076,11789.114688529336,0.0,0.0,0.0,2019-03-17T21:29:30.633523,18,EyesOpen
-20057.941384070087,-5649.336355845494,7122.584536383693,4423.566689916455,22681.186816833833,14696.361386342214,6594.770442816072,11883.103773963901,0.0,0.0,0.0,2019-03-17T21:29:30.634271,18,EyesOpen
-20134.116129173774,-5719.766702624167,7150.524216952827,4623.324230113534,22593.52327508012,15199.923837175827,6538.578157255431,12046.986764310213,0.0,0.0,0.0,2019-03-17T21:29:30.640126,18,EyesOpen
-20232.44145303267,-5810.6041920905345,7052.444762282939,4526.764694066607,22487.531302873052,15255.937308780827,6438.062362439914,11970.499094784152,0.0,0.0,0.0,2019-03-17T21:29:30.649150,18,EyesOpen
-20157.94308876313,-5739.27977553365,7020.973506089867,4322.670915445199,22573.786684726085,14767.462285454547,6494.098185789369,11807.845450382883,0.0,0.0,0.0,2019-03-17T21:29:30.649995,18,EyesOpen
-20054.365104957236,-5632.5725475040135,7113.174451968009,4396.208154703159,22688.607595992995,14652.976650354463,6598.413777162287,11868.01634645657,0.0,0.0,0.0,2019-03-17T21:29:30.655790,18,EyesOpen
-20113.08313764133,-5688.608370853469,7153.675812921026,4604.884040937905,22616.56792361354,15124.173775216792,6556.3477940974,12040.303592718077,0.0,0.0,0.0,2019-03-17T21:29:30.656447,18,EyesOpen
-20221.53380173848,-5804.680979809878,7062.458343798918,4555.911368836328,22488.49242788463,15298.226809290269,6443.18091192018,12004.272580656121,0.01,1.016,0.196,2019-03-17T21:29:30.663064,18,EyesOpen
-20169.14131273524,-5767.845304947532,7001.996875047312,4332.2821655609805,22543.36596052241,14846.430998615146,6467.164333720724,11826.263287814056,0.0,0.0,0.0,2019-03-17T21:29:30.663833,18,EyesOpen
-20053.091055523284,-5643.234329609195,7084.519515576305,4349.515360536023,22676.649412709405,14609.793080066811,6578.230151919145,11836.612145496863,0.0,0.0,0.0,2019-03-17T21:29:30.670361,18,EyesOpen
-20093.391250776203,-5666.16721942034,7145.964461083944,4567.266055019624,22631.901220309883,15021.40045421129,6560.572273799453,12007.602990579962,0.0,0.0,0.0,2019-03-17T21:29:30.671181,18,EyesOpen
-20218.203391814637,-5792.834555248565,7069.052108413232,4578.486630736188,22493.63332910935,15308.84388790654,6441.348068874845,12017.795386051583,0.0,0.0,0.0,2019-03-17T21:29:30.678455,18,EyesOpen
-20195.359908981314,-5788.252447635227,6997.682988367437,4363.596959542866,22518.2649514991,14934.183947346683,6440.342240374356,11845.798712467995,0.0,0.0,0.0,2019-03-17T21:29:30.679106,18,EyesOpen
-20077.588567446302,-5668.782373521612,7062.056012398722,4322.335639278369,22654.074150809545,14592.112850202662,6552.860921962371,11809.566534705942,0.0,0.0,0.0,2019-03-17T21:29:30.686680,18,EyesOpen
-20082.39419250419,-5661.808629251555,7146.098571550677,4536.75592383813,22648.977953073736,14929.400674033246,6570.2505791486,11981.607911778441,0.0,0.0,0.0,2019-03-17T21:29:30.687629,18,EyesOpen
-20194.37643222528,-5778.462383563803,7097.461175615928,4606.4039595608665,22513.436974696753,15319.751539200728,6460.190589450668,12041.689400874306,0.0,0.0,0.0,2019-03-17T21:29:30.693292,18,EyesOpen
-20208.703900421133,-5801.261162908217,7001.996875047312,4395.135270969305,22487.955986017703,15030.967000838162,6417.923440685683,11870.296224391011,0.0,0.0,0.0,2019-03-17T21:29:30.694093,18,EyesOpen
-20090.329061785826,-5680.807612038567,7044.3310790456635,4299.715673889598,22625.016883017648,14607.021463754352,6527.0223053720365,11794.121479287325,0.016,1.014,0.196,2019-03-17T21:29:30.700367,18,EyesOpen
-20064.646907406677,-5648.330527345005,7138.454274946961,4493.728815761664,22658.790368889615,14841.088931690329,6576.509067596086,11955.344612043455,0.0,0.0,0.0,2019-03-17T21:29:30.701019,18,EyesOpen
-20179.512522162502,-5760.201008343817,7105.641914086571,4614.830567220517,22527.429166725775,15294.605826688508,6474.920389046716,12059.839017372014,0.0,0.0,0.0,2019-03-17T21:29:30.708193,18,EyesOpen
-20223.165479083716,-5802.669322808901,7006.847203594113,4440.464608724667,22476.891872512326,15129.13586248587,6413.542498772443,11923.135748283357,0.0,0.0,0.0,2019-03-17T21:29:30.716133,18,EyesOpen
-20106.26585558246,-5702.399397182393,7029.377762005063,4301.436758212657,22609.2365514322,14660.218615557984,6512.71718892064,11813.232220796612,0.0,0.0,0.0,2019-03-17T21:29:30.716809,18,EyesOpen
-20043.122177496218,-5638.8533876959555,7132.464007432939,4460.469420012167,22674.97303187526,14770.21155002255,6583.862791521882,11938.111417068412,0.0,0.0,0.0,2019-03-17T21:29:30.722806,18,EyesOpen
-20151.46108287109,-5726.002839327198,7129.223004486919,4625.045314436593,22558.83336768548,15261.301727450102,6501.183688781702,12071.238407044222,0.0,0.0,0.0,2019-03-17T21:29:30.723727,18,EyesOpen
-20229.13339485328,-5814.113415970018,7027.701381170915,4483.223495867669,22471.5051020986,15214.631285027419,6412.357856316311,11958.406801033832,0.0,0.0,0.0,2019-03-17T21:29:30.730843,18,EyesOpen
-20141.4027978662,-5735.27881327615,7010.1105582845885,4290.551458662922,22572.669097503316,14708.632494048179,6478.340205948378,11803.62097068083,0.0,0.0,0.0,2019-03-17T21:29:30.731518,18,EyesOpen
-20051.749950855967,-5641.982631919698,7106.625390842604,4401.572573372433,22674.01190686368,14686.95130192653,6574.296244895011,11893.474983391165,0.0,0.0,0.0,2019-03-17T21:29:30.740173,18,EyesOpen
-20122.09089065682,-5708.836699585521,7134.185091755998,4603.989971159694,22588.024745944113,15185.953996891261,6523.557784981464,12061.71656390626,0.014,1.012,0.196,2019-03-17T21:29:30.740828,18,EyesOpen
-20223.120775594805,-5809.57601184559,7035.166863818988,4516.03585672806,22472.376820132355,15268.767210098173,6415.464748795599,11992.202638650257,0.0,0.0,0.0,2019-03-17T21:29:30.746470,18,EyesOpen
-20156.37846665126,-5750.410944272393,7004.0532355372,4309.259868772015,22557.045228129056,14787.645910697689,6468.483086643588,11828.3420000484,0.0,0.0,0.0,2019-03-17T21:29:30.747347,18,EyesOpen
-20053.91807006813,-5650.722164001723,7094.421338370006,4366.659148533243,22675.285956297634,14634.782330367843,6574.676224550752,11872.620805814364,0.0,0.0,0.0,2019-03-17T21:29:30.753495,18,EyesOpen
-20104.343605559305,-5695.0903767455075,7140.7118011369475,4577.883133635894,22610.75647005516,15095.27296963608,6539.986317156115,12049.020773055647,0.0,0.0,0.0,2019-03-17T21:29:30.754447,18,EyesOpen
-20215.409423757723,-5801.127052441484,7055.6634134845035,4543.260281474624,22481.026945236557,15298.673844179375,6422.326734343378,12021.706941331262,0.0,0.0,0.0,2019-03-17T21:29:30.761502,18,EyesOpen
-20180.585405896356,-5765.967758413286,6992.340921442619,4316.658296186722,22522.04239631205,14859.149141210217,6435.111932171814,11837.617973997352,0.0,0.0,0.0,2019-03-17T21:29:30.762154,18,EyesOpen
-20061.517663182934,-5657.159466404852,7069.521495046794,4319.787540410464,22655.303496754586,14598.684263072522,6548.368221326855,11836.76860770805,0.0,0.0,0.0,2019-03-17T21:29:30.768816,18,EyesOpen
-20085.07640183883,-5675.465545113748,7134.475664433917,4540.287499462068,22623.854592305972,14999.987483023106,6541.170959612246,12011.961580748748,0.0,0.0,0.0,2019-03-17T21:29:30.775000,18,EyesOpen
-20203.026557329486,-5789.90647672492,7058.099753630132,4565.4779154632,22480.825779536463,15315.12472809848,6421.455016309621,12031.362894935954,0.0,0.0,0.0,2019-03-17T21:29:30.775722,18,EyesOpen
-20185.43573444316,-5786.844287734543,6980.092165481111,4354.589206527377,22494.192122720735,14962.615366293832,6412.894298183239,11860.349698108399,0.016,1.016,0.198,2019-03-17T21:29:30.783089,18,EyesOpen
-20073.721715655534,-5675.353786391472,7036.1726923194765,4299.313342489403,22632.348255198987,14594.102155459184,6525.502386749075,11813.612200452353,0.0,0.0,0.0,2019-03-17T21:29:30.783801,18,EyesOpen
-20073.520549955436,-5660.735745517701,7119.83527181569,4507.855118257417,22634.00228428868,14901.416289975203,6551.25159636159,11980.13269664439,0.0,0.0,0.0,2019-03-17T21:29:30.791139,18,EyesOpen
-20186.262748988003,-5766.772421213677,7080.11622191861,4598.044407134582,22504.809201337004,15311.4143385189,6451.674574813196,12056.530959192629,0.0,0.0,0.0,2019-03-17T21:29:30.791785,18,EyesOpen
-20209.687377177164,-5805.57504958809,6993.1455842430105,4402.757215828564,22481.004593492104,15056.068009861472,6414.369513317289,11901.633370117352,0.0,0.0,0.0,2019-03-17T21:29:30.798483,18,EyesOpen
-20096.274625810936,-5700.5442023926025,7032.596413206627,4296.787595365953,22617.41728990284,14616.878583059142,6521.926107636226,11814.77449116403,0.0,0.0,0.0,2019-03-17T21:29:30.799368,18,EyesOpen
-20061.83058760531,-5660.176951906318,7131.167606254531,4489.146708148326,22662.500758469196,14824.45923381558,6580.107698453391,11968.08510638298,0.0,0.0,0.0,2019-03-17T21:29:30.806195,18,EyesOpen
-20168.09078074584,-5758.0105373871975,7110.045207744266,4626.967564459749,22537.800376153038,15293.97997784376,6486.409185696743,12082.883665905436,0.0,0.0,0.0,2019-03-17T21:29:30.806882,18,EyesOpen
-20215.320016779904,-5805.642104821456,7007.964790816879,4458.815390922474,22477.473017868164,15158.036668066583,6415.375341817778,11950.561338730018,0.0,0.0,0.0,2019-03-17T21:29:30.813832,18,EyesOpen
-20110.110355628774,-5708.099092018497,7018.671276410971,4297.4134442107015,22600.698185050274,14675.6636709766,6501.295447503978,11826.15152909178,0.0,0.0,0.0,2019-03-17T21:29:30.814480,18,EyesOpen
-20051.504081666957,-5642.943756931277,7112.9509345234555,4433.803788876986,22666.90405212689,14750.87729106871,6570.652910548796,11936.502091467632,0.012,1.018,0.196,2019-03-17T21:29:30.821803,18,EyesOpen
-20152.176338693658,-5725.578156182547,7113.26385894583,4604.191136859791,22553.826576927495,15241.006343484682,6489.024339798015,12075.86521814647,0.0,0.0,0.0,2019-03-17T21:29:30.822452,18,EyesOpen
-20228.239325075072,-5812.10175896904,7014.402093220007,4478.194353365226,22458.988125203625,15226.075378188538,6395.817565419384,11975.08120239749,0.0,0.0,0.0,2019-03-17T21:29:30.828242,18,EyesOpen
-20139.592306565322,-5737.692801677323,6991.379796431041,4280.627284124766,22552.530175749085,14723.406997133137,6453.730935303085,11813.411034752255,0.0,0.0,0.0,2019-03-17T21:29:30.835207,18,EyesOpen
-20045.737331597487,-5642.563777275536,7086.508820832828,4377.253875405058,22652.017790319656,14663.101990592719,6548.636442260318,11887.976454255158,0.0,0.0,0.0,2019-03-17T21:29:30.836043,18,EyesOpen
-20125.443652325113,-5711.720074620256,7117.9800770259,4584.856877905951,22568.13169337889,15150.66059239633,6498.52383119152,12054.876930102937,0.0,0.0,0.0,2019-03-17T21:29:30.843384,18,EyesOpen
-20217.756356925533,-5816.907384026931,7025.890889870035,4514.60534508292,22455.59066004642,15264.609785629485,6394.4094055187,11995.153068918356,0.0,0.0,0.0,2019-03-17T21:29:30.844167,18,EyesOpen
-20154.478568372557,-5763.419659545381,6980.494496881306,4295.379435465269,22523.539963190553,14782.907340873164,6433.010868193015,11817.00966560956,0.0,0.0,0.0,2019-03-17T21:29:30.851810,18,EyesOpen
-20053.20281424556,-5651.504475057659,7070.3932130805515,4340.462904031623,22646.295743739098,14602.864039285665,6542.445009046199,11849.732619492128,0.0,0.0,0.0,2019-03-17T21:29:30.852615,18,EyesOpen
-20096.498143255492,-5685.881458029921,7130.497053920872,4568.227180031202,22595.1326006809,15063.086457620439,6522.775473925528,12032.547537392085,0.0,0.0,0.0,2019-03-17T21:29:30.858230,18,EyesOpen
-20212.816621400907,-5802.468157108803,7044.308727301208,4550.546950167054,22460.262174637577,15298.003291845715,6407.17225160268,12017.2365924402,0.014,1.022,0.192,2019-03-17T21:29:30.859100,18,EyesOpen
-20180.719516363086,-5777.277741107672,6974.593636345106,4327.923575392196,22496.1590762328,14874.70595535111,6415.017713906493,11836.098055374392,0.0,0.0,0.0,2019-03-17T21:29:30.866011,18,EyesOpen
-20055.72856136901,-5649.7833907346,7056.401021051529,4325.263717802014,22637.690322123806,14592.470478113948,6536.432389787721,11833.885232673316,0.0,0.0,0.0,2019-03-17T21:29:30.866790,18,EyesOpen
-20065.54097718489,-5653.270262869628,7142.455237204461,4553.787953113074,22626.961484785257,14987.023471239028,6551.542169039509,12023.159804720855,0.0,0.0,0.0,2019-03-17T21:29:30.873950,18,EyesOpen
-20175.310394204902,-5765.453668290815,7081.658492286026,4597.262096078646,22490.861712796894,15334.347228330045,6439.515225829509,12063.549406951595,0.0,0.0,0.0,2019-03-17T21:29:30.874790,18,EyesOpen
-20175.08687676035,-5775.310787595605,6994.307874954686,4378.371462627824,22486.726640072662,15001.529753390521,6415.576507517875,11890.077518233958,0.0,0.0,0.0,2019-03-17T21:29:30.881049,18,EyesOpen
-20057.87432883672,-5663.574417063524,7045.023983123778,4309.013999583006,22625.79919407358,14611.983551023432,6526.351753038377,11828.72197970414,0.0,0.0,0.0,2019-03-17T21:29:30.881563,18,EyesOpen
-20043.658619363145,-5642.943756931277,7140.17535927002,4517.4663683732,22647.279220495133,14902.533877197968,6564.953215712692,11997.254132897155,0.0,0.0,0.0,2019-03-17T21:29:30.887813,18,EyesOpen
-20178.149065750727,-5771.935674182853,7091.716777290914,4603.252363592668,22503.512800158598,15316.912867654904,6451.227539924091,12069.53967446562,0.0,0.0,0.0,2019-03-17T21:29:30.895538,18,EyesOpen
-20213.71069117912,-5810.4253781348925,6987.647055107004,4403.718340840142,22462.96673571667,15082.241902618636,6397.136318342247,11909.300018465521,0.0,0.0,0.0,2019-03-17T21:29:30.896296,18,EyesOpen
-20092.11720134225,-5691.111766232463,7015.184404275943,4282.348368447825,22595.557283825554,14632.681266389045,6498.076796302414,11810.86293588435,0.016,1.02,0.194,2019-03-17T21:29:30.903617,18,EyesOpen
-20037.15426172665,-5622.894242154866,7120.55052763826,4465.185638092236,22652.3977699754,14815.07150114435,6564.0591459344805,11958.496208011653,0.0,0.0,0.0,2019-03-17T21:29:30.904406,18,EyesOpen
-20147.5048241025,-5740.978508112253,7097.260009915831,4601.307761825056,22517.12501253188,15286.536846940142,6460.1011824728475,12070.523151221652,0.0,0.0,0.0,2019-03-17T21:29:30.910178,18,EyesOpen
-20205.887580619765,-5826.585689376079,6985.613046361572,4430.428675464234,22439.430348805232,15168.4302292383,6375.633940176242,11934.579841444474,0.0,0.0,0.0,2019-03-17T21:29:30.911170,18,EyesOpen
-20092.69834669809,-5736.843435388021,6987.423537662451,4264.489324628034,22560.018010141615,14674.389621542648,6461.911673773727,11800.692892157185,0.0,0.0,0.0,2019-03-17T21:29:30.918268,18,EyesOpen
-20004.498363077448,-5653.180855891807,7094.086062203177,4407.339323441902,22649.49204319621,14722.468223866013,6548.01059341557,11912.429262689266,0.0,0.0,0.0,2019-03-17T21:29:30.919002,18,EyesOpen
-20079.756686658464,-5726.762798638678,7103.183222196487,4589.215468074735,22542.60600121093,15220.554497308076,6471.254702956046,12060.755438894683,0.0,0.0,0.0,2019-03-17T21:29:30.926306,18,EyesOpen
-20165.877958044763,-5813.688732825367,6994.844316821614,4467.711385215686,22434.91529642526,15230.702189290785,6362.245245247513,11958.004469633635,0.0,0.0,0.0,2019-03-17T21:29:30.927090,18,EyesOpen
-20084.62936694972,-5743.258386046695,6968.916293253457,4263.058812982895,22526.825669625483,14726.8268140348,6422.326734343378,11793.316816486933,0.0,0.0,0.0,2019-03-17T21:29:30.933689,18,EyesOpen
-19969.987269638452,-5638.696925484768,7068.672128757493,4351.951700681651,22636.639790134406,14637.956278080497,6524.876537904327,11862.20489289819,0.0,0.0,0.0,2019-03-17T21:29:30.934398,18,EyesOpen
-20027.34184591077,-5701.7959000821,7100.769233795314,4558.682985148786,22555.36884729491,15117.84823153594,6474.987444280082,12029.038313512601,0.018000000000000002,1.016,0.188,2019-03-17T21:29:30.940940,18,EyesOpen
-20124.102547657796,-5802.334046642071,7012.502194941306,4507.27397290158,22440.614991261362,15269.929500809849,6373.488172708532,11991.532086316596,0.0,0.0,0.0,2019-03-17T21:29:30.941616,18,EyesOpen
-20071.464189465547,-5745.895891892421,6960.9814239718235,4287.913952817196,22498.863637311893,14797.92771314713,6406.769920202484,11815.534450475508,0.0,0.0,0.0,2019-03-17T21:29:30.948062,18,EyesOpen
-19982.168970366594,-5639.345126073972,7046.119218602088,4319.049932843439,22620.94886552678,14587.486039100415,6515.555860466464,11837.461511786165,0.0,0.0,0.0,2019-03-17T21:29:30.948864,18,EyesOpen
-20040.81994781732,-5681.724033561234,7112.436844400984,4552.022165301105,22578.905234206348,15033.291582261514,6503.396511482777,12025.059702999557,0.0,0.0,0.0,2019-03-17T21:29:30.956020,18,EyesOpen
-20152.489263116036,-5796.120261683495,7038.6984394429255,4555.5090374361325,22446.87347970885,15303.546524470632,6389.559076971898,12028.14424373439,0.0,0.0,0.0,2019-03-17T21:29:30.962889,18,EyesOpen
-20119.118108644263,-5772.785040472155,6971.039708976711,4338.227729586092,22476.44483762322,14904.94786559914,6393.470632251577,11848.950308436193,0.0,0.0,0.0,2019-03-17T21:29:30.963546,18,EyesOpen
-19998.038708929864,-5651.683289013301,7041.626517966572,4314.333714763369,22612.343443911486,14591.151725191085,6509.409130741255,11824.497500002088,0.0,0.0,0.0,2019-03-17T21:29:30.970640,18,EyesOpen
-19998.664557774613,-5645.111876143441,7122.070446261221,4540.689830862264,22606.062603719547,14959.463770325634,6525.033000115514,12004.85372601196,0.0,0.0,0.0,2019-03-17T21:29:30.971394,18,EyesOpen
-20113.373710319247,-5766.258331091205,7059.4185065529955,4594.915162910839,22462.02796244955,15320.533850256665,6406.45699578011,12048.998421311191,0.0,0.0,0.0,2019-03-17T21:29:30.978413,18,EyesOpen
-20124.594286035812,-5777.680072507867,6971.509095610273,4384.4064336307565,22455.344790857413,15012.97384655164,6379.903123367206,11881.315634407478,0.018000000000000002,1.018,0.188,2019-03-17T21:29:30.979128,18,EyesOpen
-20016.322435894304,-5663.261492641151,7017.866613610579,4303.09078730235,22594.864379747436,14610.46363240047,6490.968941565627,11815.825023153428,0.0,0.0,0.0,2019-03-17T21:29:30.986350,18,EyesOpen
-19999.111592663718,-5624.794140433567,7120.88580380509,4509.553850836021,22630.38130168692,14881.031499031962,6541.148607867791,11986.882923469893,0.0,0.0,0.0,2019-03-17T21:29:30.987062,18,EyesOpen
-20122.046187167907,-5746.342926781527,7079.982111451878,4609.823776462528,22489.654718596306,15314.163603086901,6430.194548391646,12071.283110533132,0.0,0.0,0.0,2019-03-17T21:29:30.993265,18,EyesOpen
-20153.048056727417,-5801.059997208118,6979.1757439584435,4416.3917799463015,22439.430348805232,15109.75690004312,6370.73890814053,11918.486585436653,0.0,0.0,0.0,2019-03-17T21:29:30.993927,18,EyesOpen
-20026.53718311038,-5682.4616411282595,7001.885116325036,4282.214257981093,22570.210405613234,14649.959164852997,6467.454906398643,11810.348845761877,0.0,0.0,0.0,2019-03-17T21:29:31.001114,18,EyesOpen
-19971.462484772503,-5619.16150083083,7099.159908194531,4451.863998396873,22628.548458641584,14799.380576536725,6529.704514706674,11946.64978345034,0.0,0.0,0.0,2019-03-17T21:29:31.001762,18,EyesOpen
-20074.6381371782,-5720.683124146834,7086.4194138550065,4606.895697938883,22504.809201337004,15281.865332348983,6437.570624061897,12072.981843111736,0.0,0.0,0.0,2019-03-17T21:29:31.009389,18,EyesOpen
-20140.396969365713,-5796.567296572602,6982.483802137828,4457.0719548549605,22424.43232827572,15197.86747668594,6354.8021143438955,11952.952975386737,0.0,0.0,0.0,2019-03-17T21:29:31.010333,18,EyesOpen
-20047.145491498173,-5701.3041617040835,6973.833677033625,4278.839144568342,22535.98988485216,14696.070813664295,6434.9778217050825,11808.225430038623,0.0,0.0,0.0,2019-03-17T21:29:31.016095,18,EyesOpen
-19972.62477548418,-5611.226631549195,7075.914093961012,4408.814538575953,22626.022711518137,14709.817136504309,6524.518909993042,11910.708178366207,0.008,1.018,0.188,2019-03-17T21:29:31.022697,18,EyesOpen
-20066.77032312993,-5693.726920333734,7086.844096999657,4595.697473966775,22520.388367222353,15200.236761598202,6452.680403313685,12064.644642429907,0.0,0.0,0.0,2019-03-17T21:29:31.023564,18,EyesOpen
-20167.621394112277,-5793.795680260144,6984.42840390544,4492.521821561078,22412.272979292033,15242.034523729626,6349.9294340526385,11979.931530944292,0.0,0.0,0.0,2019-03-17T21:29:31.030717,18,EyesOpen
-20097.660433967165,-5730.652002173902,6956.064040191655,4287.153993505716,22497.634291366852,14748.508006156446,6404.065359123392,11814.707435930663,0.0,0.0,0.0,2019-03-17T21:29:31.031384,18,EyesOpen
-19996.719956007,-5629.1080271134415,7056.356317562619,4367.1508869112595,22616.277350935623,14637.866871102677,6513.499499976576,11875.68299480474,0.0,0.0,0.0,2019-03-17T21:29:31.038945,18,EyesOpen
-20048.084264765297,-5679.1759346933295,7105.373693153107,4588.09788085197,22549.579745480987,15115.747167557141,6475.278016958001,12053.133494035423,0.0,0.0,0.0,2019-03-17T21:29:31.039959,18,EyesOpen
-20143.32504788936,-5787.581895301569,7017.665447910482,4546.054249531538,22422.800650930483,15286.559198684598,6359.7865533574295,12016.409577895354,0.0,0.0,0.0,2019-03-17T21:29:31.046810,18,EyesOpen
-20083.981166360518,-5748.600452971513,6966.010566474268,4328.884700403774,22478.791770791027,14833.578745553345,6384.7981554029175,11840.25547984308,0.0,0.0,0.0,2019-03-17T21:29:31.047660,18,EyesOpen
-19958.498472988424,-5626.314059056528,7055.238730339853,4354.745668738565,22612.768127056137,14601.7464520629,6497.406243968755,11854.672355016752,0.0,0.0,0.0,2019-03-17T21:29:31.053499,18,EyesOpen
-19993.5683600388,-5643.010812164643,7122.338667194685,4586.510906995643,22574.65840275984,15027.614239169865,6487.012682797037,12039.498929917685,0.0,0.0,0.0,2019-03-17T21:29:31.054325,18,EyesOpen
-20125.018969180463,-5769.85696194851,7044.979279634867,4602.872383936928,22436.077587136937,15317.114033355003,6367.877884850251,12049.959546322769,0.008,1.02,0.192,2019-03-17T21:29:31.061649,18,EyesOpen
-20100.07442236834,-5758.23405483175,6973.118421211055,4385.591076086888,22457.758779258584,14933.066360123918,6364.793344115418,11874.140724437324,0.0,0.0,0.0,2019-03-17T21:29:31.062361,18,EyesOpen
-19982.392487811147,-5638.3840010623935,7039.972488876879,4343.770962211009,22597.0324989596,14591.866981013654,6480.0612902714365,11842.647116499797,0.0,0.0,0.0,2019-03-17T21:29:31.068609,18,EyesOpen
-19994.551836794835,-5640.4403615522815,7119.79056832678,4557.453639203744,22592.875074490916,14930.607668233833,6497.160374779746,12019.09178722999,0.0,0.0,0.0,2019-03-17T21:29:31.069623,18,EyesOpen
-20119.900419700196,-5760.3574705550045,7066.25814035632,4626.095846425992,22455.613011790876,15314.498879253732,6385.31224552539,12076.58047396904,0.0,0.0,0.0,2019-03-17T21:29:31.075298,18,EyesOpen
-20138.6535332982,-5787.984226701764,6974.727746811837,4416.011800290561,22434.892944680803,15026.4966519471,6346.241396217513,11909.255314976612,0.0,0.0,0.0,2019-03-17T21:29:31.082796,18,EyesOpen
-20019.317569651317,-5674.415013124349,7011.764587374281,4314.445473485645,22567.997582912158,14601.210010195973,6449.506455601032,11829.079607615426,0.0,0.0,0.0,2019-03-17T21:29:31.083274,18,EyesOpen
-19977.832731942264,-5629.465655024726,7109.419358899518,4511.878432259373,22606.53199035311,14839.479606089546,6501.183688781702,11990.36979560492,0.0,0.0,0.0,2019-03-17T21:29:31.090701,18,EyesOpen
-20084.137628571705,-5737.513987721681,7075.802335238735,4628.129855171425,22472.086247454437,15288.50380045221,6394.856440407806,12087.801049685604,0.0,0.0,0.0,2019-03-17T21:29:31.091079,18,EyesOpen
-20140.665190299176,-5785.1902586448505,6977.633473591027,4452.154571074792,22423.940589897706,15118.18350770277,6337.792436813407,11950.762504430117,0.0,0.0,0.0,2019-03-17T21:29:31.097838,18,EyesOpen
-20043.904488552154,-5683.959208006765,6985.836563806125,4299.670970400688,22545.310562290022,14635.13995827913,6428.60757453532,11829.906622160272,0.006,1.014,0.194,2019-03-17T21:29:31.098177,18,EyesOpen
-19985.544083779347,-5615.071131595509,7088.364015622618,4458.301300800002,22614.936246268302,14750.54201490188,6504.268229516534,11960.239644079167,0.0,0.0,0.0,2019-03-17T21:29:31.105642,18,EyesOpen
-20085.74695417249,-5709.104920518986,7088.833402256179,4625.000610947682,22502.21639898019,15244.426160386343,6422.282030854468,12098.909866679891,0.0,0.0,0.0,2019-03-17T21:29:31.106237,18,EyesOpen
-20168.850740057318,-5788.163040657407,6979.913351525468,4482.038853411538,22412.742365925595,15192.346595805479,6333.277384433435,11985.56417054703,0.0,0.0,0.0,2019-03-17T21:29:31.113653,18,EyesOpen
-20079.823741891832,-5703.740501849711,6962.277825150231,4292.384301708258,22514.576913663976,14687.75596472692,6406.658161480208,11833.929936162227,0.0,0.0,0.0,2019-03-17T21:29:31.114120,18,EyesOpen
-19987.84631345824,-5619.317963042016,7066.794582223247,4412.927259555729,22614.779784057115,14677.027127388374,6502.591848682386,11927.181414029768,0.0,0.0,0.0,2019-03-17T21:29:31.121983,18,EyesOpen
-20061.49531143848,-5688.675426086835,7093.862544758624,4618.786825989107,22527.764442892607,15175.135752574892,6446.980708477582,12095.333587567042,0.0,0.0,0.0,2019-03-17T21:29:31.122632,18,EyesOpen
-20168.247242957026,-5798.95893322932,6988.071738251655,4525.468292888199,22408.875514134827,15246.057837731581,6334.484378634022,12019.851746541472,0.0,0.0,0.0,2019-03-17T21:29:31.128381,18,EyesOpen
-20095.35820428827,-5732.70836266379,6956.801647758681,4316.479482231079,22489.230035451656,14760.130913273206,6382.987664102038,11852.3477735934,0.0,0.0,0.0,2019-03-17T21:29:31.129031,18,EyesOpen
-19989.992080925953,-5625.844672422966,7057.116276874099,4382.126555696315,22615.785612557604,14621.46069067248,6495.104014289858,11907.936562053748,0.0,0.0,0.0,2019-03-17T21:29:31.135562,18,EyesOpen
-20053.851014834763,-5679.0641759710525,7097.55058259375,4596.278619322613,22546.2716873016,15081.593702029431,6455.697888815152,12082.749555438704,0.012,1.014,0.2,2019-03-17T21:29:31.143270,18,EyesOpen
-20159.015972496985,-5784.475002822281,7012.323380985664,4568.4283457312995,22420.230200318125,15290.448402219821,6347.068410762359,12062.163598795367,0.0,0.0,0.0,2019-03-17T21:29:31.144051,18,EyesOpen
-20130.02575993845,-5760.089249621541,6945.46931331984,4340.61936624281,22459.882194981838,14847.727399793554,6360.255939990991,11877.560541338986,0.0,0.0,0.0,2019-03-17T21:29:31.151344,18,EyesOpen
-20017.149450439152,-5644.754248232156,7027.164939303987,4347.347241323858,22594.32793788051,14587.17311467804,6476.820287325417,11880.488619862632,0.0,0.0,0.0,2019-03-17T21:29:31.152004,18,EyesOpen
-20029.375854656202,-5656.131286159907,7100.009274483833,4577.391395257878,22568.981059668193,14996.388852165801,6477.155563492247,12065.449305230297,0.0,0.0,0.0,2019-03-17T21:29:31.157979,18,EyesOpen
-20143.146233933716,-5769.029947403664,7034.876291141069,4608.952058428772,22436.435215048223,15315.728225198774,6364.234550504035,12093.031357888147,0.0,0.0,0.0,2019-03-17T21:29:31.158839,18,EyesOpen
-20143.23564091154,-5763.039679889641,6950.5878628001055,4383.020625474528,22439.095072638404,14947.304421341947,6341.100494992793,11909.478832421164,0.0,0.0,0.0,2019-03-17T21:29:31.166021,18,EyesOpen
-20025.68781682108,-5640.395658063371,7011.764587374281,4330.359915537824,22580.268690618122,14587.17311467804,6457.731897560585,11868.01634645657,0.0,0.0,0.0,2019-03-17T21:29:31.166998,18,EyesOpen
-20018.57996208429,-5631.678477725802,7101.3280274066965,4547.395354198856,22590.371679111922,14908.747662156542,6486.90092407476,12043.745761364195,0.0,0.0,0.0,2019-03-17T21:29:31.173903,18,EyesOpen
-20137.13361467524,-5749.919205894376,7051.707154715915,4632.086113940014,22453.064912922968,15315.102376354025,6379.389033244734,12114.176108142867,0.0,0.0,0.0,2019-03-17T21:29:31.174902,18,EyesOpen
-20167.50963539,-5784.81027898911,6951.2360633893095,4420.571556159443,22424.20881083117,15048.781341169042,6335.892538534706,11947.946184628749,0.014,1.018,0.198,2019-03-17T21:29:31.180398,18,EyesOpen
-20047.771340342922,-5677.052518970075,6979.689834080915,4299.1121767893055,22556.59819323995,14599.779498550834,6437.32475487289,11853.934747449726,0.0,0.0,0.0,2019-03-17T21:29:31.181062,18,EyesOpen
-20006.219447400505,-5630.717352714223,7077.009329439322,4488.587914536943,22601.39108912839,14810.31057957537,6493.226467755612,12007.46888011323,0.0,0.0,0.0,2019-03-17T21:29:31.188378,18,EyesOpen
-20118.8498877108,-5733.423618486359,7051.282471571264,4621.804311490573,22472.421523621266,15274.77982935665,6396.041082863937,12115.472509321275,0.0,0.0,0.0,2019-03-17T21:29:31.188799,18,EyesOpen
-20170.37065868028,-5794.220363404795,6945.826941231125,4442.87859712584,22409.657825190763,15124.37494091689,6325.230756429524,11973.673042496806,0.0,0.0,0.0,2019-03-17T21:29:31.195523,18,EyesOpen
-20064.021058561928,-5706.981504795731,6943.725877252326,4273.072394498872,22523.584666679464,14625.998094796909,6403.55126900092,11835.449854785187,0.0,0.0,0.0,2019-03-17T21:29:31.196002,18,EyesOpen
-20005.213618900016,-5637.467579539726,7045.783942435258,4420.482149181623,22594.864379747436,14705.793822502355,6475.814458824928,11948.504978240131,0.0,0.0,0.0,2019-03-17T21:29:31.203546,18,EyesOpen
-20097.861599667263,-5714.3352287215275,7053.338832061152,4598.737311212696,22488.73829707364,15207.858706457462,6400.131452099258,12093.612503243983,0.0,0.0,0.0,2019-03-17T21:29:31.210077,18,EyesOpen
-20177.679679117166,-5790.822898247588,6948.8891302215025,4471.0417951395275,22392.58109242691,15187.853895169961,6303.951895708072,11987.441717081276,0.0,0.0,0.0,2019-03-17T21:29:31.210552,18,EyesOpen
-20097.302806055883,-5719.766702624167,6920.748283952271,4268.713804330087,22481.004593492104,14678.882322178164,6360.635919646731,11821.211793567158,0.0,0.0,0.0,2019-03-17T21:29:31.218099,18,EyesOpen
-20005.504191577937,-5633.3325068154945,7022.024038079267,4372.604712558355,22584.582577297995,14634.715275134478,6456.368441148811,11902.192163728734,0.018000000000000002,1.018,0.19,2019-03-17T21:29:31.218531,18,EyesOpen
-20067.195006274582,-5692.69874008879,7057.496256529839,4582.308779038046,22502.417564680287,15136.266068967114,6405.8087951909065,12071.39486925541,0.0,0.0,0.0,2019-03-17T21:29:31.226327,18,EyesOpen
-20161.921699276176,-5790.3535116140265,6962.590749572605,4511.453749114722,22386.076734790415,15251.131683722937,6297.9169247051395,12011.112214459446,0.0,0.0,0.0,2019-03-17T21:29:31.227059,18,EyesOpen
-20113.731338230533,-5742.744295924223,6912.075807103612,4291.870211585786,22452.059084422483,14767.417581965636,6330.885747776717,11831.71711346115,0.0,0.0,0.0,2019-03-17T21:29:31.234856,18,EyesOpen
-20000.966787453508,-5628.549233502059,6999.672293623959,4340.842883687364,22575.440713815777,14591.844629269199,6441.504531086031,11870.20681741319,0.0,0.0,0.0,2019-03-17T21:29:31.235668,18,EyesOpen
-20043.613915874233,-5657.271225127128,7052.131837860566,4564.181514284792,22524.009349824115,15047.686105690731,6419.666876753196,12053.491121946709,0.0,0.0,0.0,2019-03-17T21:29:31.241126,18,EyesOpen
-20167.42022841218,-5781.993959187742,6960.646147804993,4537.001793027138,22385.13796152329,15271.695288621819,6295.994674681982,12032.23461296971,0.0,0.0,0.0,2019-03-17T21:29:31.241774,18,EyesOpen
-20128.394082593215,-5757.049412375619,6887.779460880693,4307.4493774711345,22419.04555786199,14842.31827763537,6302.3872735962,11847.96683168016,0.0,0.0,0.0,2019-03-17T21:29:31.248979,18,EyesOpen
-20012.90261899264,-5629.01862013562,6963.931854239924,4300.497984945534,22557.55931825153,14556.59592826318,6422.192623876646,11844.032924656025,0.0,0.0,0.0,2019-03-17T21:29:31.249757,18,EyesOpen
-20030.40403490115,-5652.890283213888,7042.073552855677,4520.37209515239,22537.778024408584,14941.135339872282,6425.299516355934,12024.456205899263,0.0,0.0,0.0,2019-03-17T21:29:31.256995,18,EyesOpen
-20153.115111960782,-5769.186409614851,6976.940569512913,4556.648976403353,22399.756002397062,15279.428992203355,6312.132634178714,12055.994517325702,0.018000000000000002,1.018,0.19,2019-03-17T21:29:31.257643,18,EyesOpen
-20156.780798051455,-5777.14363064094,6893.456803972341,4334.986726640073,22399.53248495251,14936.5755840034,6292.887782202695,11879.415736128776,0.0,0.0,0.0,2019-03-17T21:29:31.263317,18,EyesOpen
-20035.701398337056,-5665.764888020145,6954.097086679589,4271.328958431359,22540.974323865692,14555.031306151308,6409.273315581479,11825.615087224853,0.0,0.0,0.0,2019-03-17T21:29:31.270522,18,EyesOpen
-20024.19024994257,-5653.02439368062,7040.777151677269,4477.613208009388,22556.352324050942,14846.386295126236,6440.722220030096,11990.906237471849,0.0,0.0,0.0,2019-03-17T21:29:31.271237,18,EyesOpen
-20139.74876877651,-5762.056203133608,6993.950247043401,4567.6013311864535,22419.470241006642,15268.655451375897,6330.282250676424,12064.152904051889,0.0,0.0,0.0,2019-03-17T21:29:31.278414,18,EyesOpen
-20170.907100547207,-5802.758729786722,6890.573428937606,4366.77090725552,22382.343993466377,15030.721131649154,6279.588494251788,11900.582838127952,0.0,0.0,0.0,2019-03-17T21:29:31.279204,18,EyesOpen
-20056.265003235938,-5696.945571535298,6919.876565918514,4245.132713929738,22518.622579410385,14576.041945939298,6384.328768769356,11799.24002876759,0.0,0.0,0.0,2019-03-17T21:29:31.286457,18,EyesOpen
-20007.404089856638,-5638.272242340117,7020.459415967395,4426.539471929011,22569.919832935317,14756.755799860455,6442.4209526087,11943.453483993231,0.0,0.0,0.0,2019-03-17T21:29:31.286926,18,EyesOpen
-20112.278474840936,-5730.51789170717,7002.890944825524,4569.948264354261,22440.838508705918,15231.43979685781,6347.82837007384,12059.503741205186,0.0,0.0,0.0,2019-03-17T21:29:31.293216,18,EyesOpen
-20173.388144181747,-5791.649912792434,6903.872716888513,4411.966134544151,22373.515054406533,15116.931810013273,6274.33583430479,11931.562355943008,0.0,0.0,0.0,2019-03-17T21:29:31.293875,18,EyesOpen
-20073.96758484454,-5702.51115590467,6903.805661655148,4242.137580172727,22487.374840661865,14622.08653951723,6354.444486432611,11793.540333931487,0.01,1.022,0.188,2019-03-17T21:29:31.301199,18,EyesOpen
-20000.318586864305,-5617.820396163511,7006.288409982731,4384.585247586399,22570.098646890958,14679.195246600539,6437.816493250906,11905.679035863763,0.0,0.0,0.0,2019-03-17T21:29:31.301851,18,EyesOpen
-20087.423335006635,-5704.70162686129,7022.135796801544,4574.552723712054,22469.225224164158,15182.064793356038,6370.78361162944,12059.906072605381,0.0,0.0,0.0,2019-03-17T21:29:31.309053,18,EyesOpen
-20168.426056912667,-5800.456500107825,6922.6481822309715,4465.297396814513,22371.279879961003,15203.790688966596,6278.33679656229,11973.583635518986,0.0,0.0,0.0,2019-03-17T21:29:31.309519,18,EyesOpen
-20089.725564685534,-5729.735580651233,6898.038911585679,4269.093783985828,22464.285488639533,14711.180592916084,6338.641803102709,11816.160299320258,0.0,0.0,0.0,2019-03-17T21:29:31.315913,18,EyesOpen
-20001.972615953997,-5636.3276405725055,6995.000779032801,4362.2782066200025,22569.584556768485,14634.648219901112,6435.93894671666,11886.724756565662,0.0,0.0,0.0,2019-03-17T21:29:31.316755,18,EyesOpen
-20077.342698257293,-5692.609333110969,7029.221299793876,4569.054194576049,22489.252387196113,15118.56348735851,6385.871039136772,12055.547482436596,0.0,0.0,0.0,2019-03-17T21:29:31.322923,18,EyesOpen
-20174.37162093778,-5785.637293533957,6939.836673717103,4512.03489447056,22374.85615907385,15259.223015215757,6280.259046585446,12010.66517957034,0.0,0.0,0.0,2019-03-17T21:29:31.330704,18,EyesOpen
-20110.80325970689,-5735.65879293189,6895.021426084212,4294.798290109431,22442.783110473527,14789.277588042927,6318.078198203826,11838.243822842102,0.0,0.0,0.0,2019-03-17T21:29:31.331487,18,EyesOpen
-20004.140735166162,-5629.353896302449,6977.029976490734,4320.972182866595,22565.2259665997,14577.271291884339,6423.265507610501,11856.192273639712,0.0,0.0,0.0,2019-03-17T21:29:31.338801,18,EyesOpen
-20046.8325670758,-5660.869855984432,7039.659564454504,4542.3662116964115,22520.231905011166,15021.221640255648,6405.540574257443,12036.839072327504,0.0,0.0,0.0,2019-03-17T21:29:31.339572,18,EyesOpen
-20161.36290566479,-5772.315653838594,6957.963938470357,4531.2126912132135,22382.72397312212,15276.433858446344,6287.657474000153,12028.14424373439,0.014,1.018,0.188,2019-03-17T21:29:31.345381,18,EyesOpen
-20132.59621055081,-5757.205874586806,6888.092385303067,4304.90127860323,22408.450830990176,14864.491208135034,6290.049110656872,11844.926994434238,0.0,0.0,0.0,2019-03-17T21:29:31.346120,18,EyesOpen
-20018.57996208429,-5661.9203879738325,6954.812342502159,4282.169554492182,22543.16479482231,14549.26455608184,6401.919591655683,11818.306066787967,0.0,0.0,0.0,2019-03-17T21:29:31.353527,18,EyesOpen
-20036.908392537644,-5661.02631819562,7037.53614873125,4509.173871180281,22537.196879052746,14920.504679740034,6417.141129629747,11998.863458497937,0.0,0.0,0.0,2019-03-17T21:29:31.354182,18,EyesOpen
-20156.199652695617,-5772.270950349683,6977.633473591027,4562.862761361928,22401.56649369794,15282.245312004723,6308.131671921215,12045.109217775967,0.0,0.0,0.0,2019-03-17T21:29:31.361497,18,EyesOpen
-20152.824539282865,-5777.858886463509,6891.1769260379,4347.168427368215,22396.738516895595,14964.805837250453,6284.282360587402,11878.2534454171,0.0,0.0,0.0,2019-03-17T21:29:31.362145,18,EyesOpen
-20027.431252888593,-5659.059364683552,6935.835711459603,4263.103516471805,22535.073463329492,14560.30631784276,6393.180059573658,11810.661770184252,0.0,0.0,0.0,2019-03-17T21:29:31.368563,18,EyesOpen
-20017.01533997242,-5634.584204504991,7027.701381170915,4464.828010180951,22557.693428718263,14823.967495437562,6434.061400182414,11970.186170361778,0.0,0.0,0.0,2019-03-17T21:29:31.369388,18,EyesOpen
-20121.64385576771,-5735.479978976247,6999.582886646139,4582.644055204875,22429.372063800343,15269.661279876385,6334.752599567485,12064.57758719654,0.0,0.0,0.0,2019-03-17T21:29:31.376165,18,EyesOpen
-20157.741923063033,-5775.623712017979,6904.297400033164,4395.247029691581,22382.455752188656,15060.471303519167,6277.24156108398,11911.35637895541,0.0,0.0,0.0,2019-03-17T21:29:31.376838,18,EyesOpen
-20047.324305453814,-5674.459716613259,6923.631658987005,4256.420344879669,22506.060899026503,14587.508390844869,6370.224818018058,11797.027206066514,0.014,1.016,0.182,2019-03-17T21:29:31.383228,18,EyesOpen
-20003.559589810324,-5622.000172376654,7017.017247321278,4421.867957337851,22558.18516709628,14733.599392604756,6425.523033800488,11926.868489607394,0.0,0.0,0.0,2019-03-17T21:29:31.392472,18,EyesOpen
-20106.198800349095,-5714.111711276974,7006.6460378940155,4576.720842924219,22437.798671459994,15219.928648463327,6334.774951311941,12052.66410740186,0.0,0.0,0.0,2019-03-17T21:29:31.393134,18,EyesOpen
-20164.313335932893,-5782.999787688231,6910.51118499174,4432.663849909764,22368.24004271508,15141.89870856985,6260.477752742499,11938.93843161326,0.0,0.0,0.0,2019-03-17T21:29:31.398826,18,EyesOpen
-20069.005497575465,-5701.348865192994,6903.3362750215865,4261.896522271219,22482.12218071487,14647.791045640834,6342.218082215558,11801.966941591138,0.0,0.0,0.0,2019-03-17T21:29:31.399583,18,EyesOpen
-19992.67429026059,-5623.229518321696,7000.856936080091,4388.96618949964,22567.863472445428,14665.85125516072,6427.445283823644,11901.58866662844,0.0,0.0,0.0,2019-03-17T21:29:31.405780,18,EyesOpen
-20084.539959971902,-5704.142833249907,7014.156224030999,4578.888962136383,22468.21939566367,15166.642089681876,6358.266634734468,12057.91676734886,0.0,0.0,0.0,2019-03-17T21:29:31.406669,18,EyesOpen
-20164.5592051219,-5789.481793580269,6925.978592154813,4484.452841812711,22375.794932340974,15220.82271824154,6269.95489239155,11986.70410951425,0.0,0.0,0.0,2019-03-17T21:29:31.413651,18,EyesOpen
-20094.084154854318,-5715.989257811219,6894.328522006098,4278.682682357155,22460.97743046015,14721.39534013216,6323.241451173002,11820.00479936657,0.0,0.0,0.0,2019-03-17T21:29:31.414524,18,EyesOpen
-19997.077583918286,-5612.344218771961,6991.089223753122,4356.869084461819,22574.61369927093,14615.381016180638,6431.021562936493,11883.282587919544,0.0,0.0,0.0,2019-03-17T21:29:31.421812,18,EyesOpen
-20066.233881263004,-5672.895094501388,7029.288355027242,4564.09210730697,22497.522532644576,15090.93673121175,6387.972103115571,12052.686459146316,0.02,1.012,0.19,2019-03-17T21:29:31.422464,18,EyesOpen
-20174.841007571344,-5785.346720856038,6932.795874213681,4507.363379879401,22368.016525270526,15256.898433792405,6270.692499958575,12011.179269692811,0.0,0.0,0.0,2019-03-17T21:29:31.428351,18,EyesOpen
-20117.687596999123,-5743.124275579962,6882.727966633794,4290.283237729459,22430.087319622915,14805.437899284114,6302.946067207583,11841.641287999308,0.0,0.0,0.0,2019-03-17T21:29:31.429232,18,EyesOpen
-20000.98913919796,-5626.649335223357,6970.033880476222,4315.987743853062,22563.61664099892,14577.897140729088,6419.242193608546,11859.701497519196,0.0,0.0,0.0,2019-03-17T21:29:31.436563,18,EyesOpen
-20045.379703686205,-5660.9816147067095,7026.539090459239,4532.129112735881,22517.281474743068,14999.428689411723,6401.897239911228,12033.486310659207,0.0,0.0,0.0,2019-03-17T21:29:31.437212,18,EyesOpen
-20154.99265849503,-5778.171810885884,6951.99602270079,4541.114514006915,22385.13796152329,15287.78854462964,6292.328988591313,12045.37743870943,0.0,0.0,0.0,2019-03-17T21:29:31.444849,18,EyesOpen
-20143.190937422627,-5765.923054924376,6871.21681823931,4309.237517027559,22400.538313453,14891.358004970314,6283.142421620181,11860.68497427523,0.0,0.0,0.0,2019-03-17T21:29:31.445598,18,EyesOpen
-20024.86080227623,-5643.703716242757,6934.494606792285,4268.534990374445,22538.64974244234,14554.561919517748,6395.147013085725,11827.157357592268,0.0,0.0,0.0,2019-03-17T21:29:31.451127,18,EyesOpen
-20017.23885741697,-5639.54629177407,7021.755817145803,4492.2312488831585,22543.23185005568,14910.200525546137,6418.169309874691,12006.999493479669,0.0,0.0,0.0,2019-03-17T21:29:31.459943,18,EyesOpen
-20135.03255069644,-5763.933749667854,6965.049441462689,4557.453639203744,22403.399336743278,15291.521285953677,6306.9023259761725,12059.235520271723,0.0,0.0,0.0,2019-03-17T21:29:31.460666,18,EyesOpen
-20159.798283552922,-5784.43029933337,6872.35675720653,4345.357936067336,22383.014545800037,14992.92433177523,6268.837305168785,11886.143611209824,0.014,1.01,0.196,2019-03-17T21:29:31.466151,18,EyesOpen
-20046.609049631246,-5671.576341578525,6911.807586170147,4250.765353532476,22518.60022766593,14567.637690024101,6374.337538997834,11806.213773037645,0.0,0.0,0.0,2019-03-17T21:29:31.466876,18,EyesOpen
-20011.58386606978,-5639.121608629419,7011.317552485175,4449.941748373717,22550.80909142603,14815.07150114435,6423.377266332778,11967.883940682881,0.0,0.0,0.0,2019-03-17T21:29:31.474023,18,EyesOpen
-20117.262913854473,-5742.833702902044,6985.881267295035,4570.819982388018,22421.81717417445,15265.839131574528,6324.023762228938,12065.896340119403,0.0,0.0,0.0,2019-03-17T21:29:31.474676,18,EyesOpen
-20160.737056820042,-5785.234962133761,6889.5452486926615,4391.380177900813,22373.827978828907,15084.164152641792,6264.7022324445525,11918.821861603483,0.0,0.0,0.0,2019-03-17T21:29:31.480620,18,EyesOpen
-20053.605145645757,-5674.88439975791,6910.533536736195,4254.185170434138,22505.055070526014,14611.715330089966,6361.999376058505,11806.593752693387,0.0,0.0,0.0,2019-03-17T21:29:31.481561,18,EyesOpen
-19996.362328095714,-5611.830128649489,7014.647962409015,4421.01859104855,22573.98785042618,14737.868575795721,6435.693077527652,11938.759617657617,0.0,0.0,0.0,2019-03-17T21:29:31.488519,18,EyesOpen
-20094.59824497679,-5709.909583319376,7008.858860595091,4584.968636628227,22452.461415822676,15231.73036953573,6349.996489286004,12073.29476753411,0.0,0.0,0.0,2019-03-17T21:29:31.489161,18,EyesOpen
-20165.319164433382,-5793.974494215786,6897.658931929938,4440.911643613773,22357.66766758772,15172.319432773524,6251.090020071271,11955.679888210285,0.0,0.0,0.0,2019-03-17T21:29:31.496712,18,EyesOpen
-20073.297032510884,-5717.956211323287,6887.153612035944,4257.962615247085,22461.670334538263,14672.579130241767,6322.01210522796,11807.554877704964,0.0,0.0,0.0,2019-03-17T21:29:31.497402,18,EyesOpen
-19993.903636205632,-5627.4092945348375,6992.81030807618,4379.131421939304,22557.089931617968,14666.611214472201,6416.247059851535,11905.053187019013,0.014,1.01,0.196,2019-03-17T21:29:31.503994,18,EyesOpen
-20081.388364003702,-5701.237106470717,7008.970619317368,4571.445831232766,22460.329229870946,15157.880205855396,6352.186960242625,12063.974090096246,0.0,0.0,0.0,2019-03-17T21:29:31.504658,18,EyesOpen
-20173.388144181747,-5801.127052441484,6906.823147156614,4473.187562607237,22348.302286660946,15226.231840399723,6247.357278747235,11987.732289759195,0.0,0.0,0.0,2019-03-17T21:29:31.510343,18,EyesOpen
-20098.576855489835,-5726.338115494027,6873.0720130291,4263.0141094939845,22430.467299278655,14742.070703753318,6299.235677628002,11822.932877890216,0.0,0.0,0.0,2019-03-17T21:29:31.518215,18,EyesOpen
-19991.91433094911,-5614.422931006305,6972.3137584106635,4333.086828361372,22553.401893782844,14614.531649891336,6411.88846968275,11880.01923322907,0.0,0.0,0.0,2019-03-17T21:29:31.519134,18,EyesOpen
-20047.145491498173,-5673.811516024055,7013.060988552688,4547.887092576872,22485.474942383164,15083.605359030409,6376.036271576438,12055.927462092337,0.0,0.0,0.0,2019-03-17T21:29:31.526265,18,EyesOpen
-20158.07719922986,-5782.95508419932,6922.268202575231,4511.900784003828,22354.627830341797,15274.243387489723,6261.371822520712,12023.495080887686,0.0,0.0,0.0,2019-03-17T21:29:31.527219,18,EyesOpen
-20118.827535966342,-5752.7578774402,6867.037042026168,4293.971275564584,22408.651996690274,14828.5496030509,6285.914037932639,11846.223395612646,0.0,0.0,0.0,2019-03-17T21:29:31.533600,18,EyesOpen
-20007.895828234654,-5645.961242432742,6941.781275484715,4295.3570837208135,22536.481623230175,14565.447219067482,6394.364702029789,11846.53632003502,0.0,0.0,0.0,2019-03-17T21:29:31.534249,18,EyesOpen
-20033.7791483139,-5660.35576586196,7009.037674550734,4513.778330538074,22505.83738158195,14975.065287955438,6388.821469404873,12023.025694254124,0.0,0.0,0.0,2019-03-17T21:29:31.540899,18,EyesOpen
-20156.087893973337,-5777.210685874305,6935.701600992871,4531.793836569052,22364.14967347976,15282.02179456017,6268.054994112849,12034.581546137519,0.016,1.016,0.194,2019-03-17T21:29:31.541688,18,EyesOpen
-20150.209385181595,-5774.5061247952135,6857.068163999101,4308.745778649542,22376.353725952355,14910.312284268413,6254.934520117584,11852.884215460326,0.0,0.0,0.0,2019-03-17T21:29:31.548928,18,EyesOpen
-20023.184421442085,-5651.437419824293,6926.17975785491,4265.562208361889,22521.930637589772,14556.059486396252,6374.471649464566,11813.947476619182,0.0,0.0,0.0,2019-03-17T21:29:31.549599,18,EyesOpen
-20009.706319535533,-5635.970012661221,7013.552726930706,4484.74341449063,22527.18329753677,14881.433830432157,6399.7067689546075,11987.642882781372,0.0,0.0,0.0,2019-03-17T21:29:31.557003,18,EyesOpen
-20117.151155132193,-5736.195234798817,6967.642243819505,4571.401127743856,22391.99994707107,15289.062594063593,6293.4018723251675,12055.301613247588,0.0,0.0,0.0,2019-03-17T21:29:31.557651,18,EyesOpen
-20135.546640818913,-5772.1591916274065,6872.2897019731645,4368.871971234318,22368.597670626365,15022.249820500592,6254.375726506201,11891.530381623554,0.0,0.0,0.0,2019-03-17T21:29:31.563643,18,EyesOpen
-20024.19024994257,-5656.913597215843,6911.002923369757,4266.70214732911,22502.037585024547,14584.669719299045,6358.713669623575,11805.207944537156,0.0,0.0,0.0,2019-03-17T21:29:31.564296,18,EyesOpen
-19990.036784414864,-5613.908840883832,7004.656732637493,4456.401402521301,22533.73235866217,14799.246466069993,6407.0381411359485,11954.897577154348,0.0,0.0,0.0,2019-03-17T21:29:31.570601,18,EyesOpen
-20097.54867524489,-5708.143795507407,6983.62374110505,4591.696511709275,22408.80845890146,15271.918806066371,6311.372674867234,12068.153866309389,0.0,0.0,0.0,2019-03-17T21:29:31.578387,18,EyesOpen
-20153.293925916427,-5768.471153792281,6878.324672976098,4415.050675278982,22347.89995526075,15115.27778092358,6242.372839733701,11928.187242530257,0.0,0.0,0.0,2019-03-17T21:29:31.579231,18,EyesOpen
-20045.02207577492,-5669.676443299823,6889.433489970385,4258.9684437475735,22470.119293942367,14629.395559954115,6334.439675145111,11806.280828271012,0.01,1.02,0.192,2019-03-17T21:29:31.585726,18,EyesOpen
-19977.922138920087,-5599.246096521151,6990.016340019267,4408.725131598131,22544.66236170082,14720.098938953752,6411.329676071367,11929.573050686486,0.0,0.0,0.0,2019-03-17T21:29:31.586420,18,EyesOpen
-20080.5389977144,-5692.139946477407,6978.57224685815,4567.869552119917,22423.78412768652,15205.62353201193,6323.576727339831,12058.967299338257,0.0,0.0,0.0,2019-03-17T21:29:31.593208,18,EyesOpen
-20161.027629497963,-5778.171810885884,6869.920417060902,4431.412152220268,22329.638580040762,15168.251415282657,6229.386476205168,11947.208577061723,0.0,0.0,0.0,2019-03-17T21:29:31.593911,18,EyesOpen
-20069.385477231204,-5704.321647205549,6859.057469255623,4247.41259186418,22439.564459271965,14669.248720317928,6301.694369518086,11794.769679876528,0.0,0.0,0.0,2019-03-17T21:29:31.601284,18,EyesOpen
-19986.371098324194,-5620.390846775871,6959.997947215789,4356.198532128159,22540.08025408748,14631.720141377467,6399.0585683654035,11876.174733182757,0.0,0.0,0.0,2019-03-17T21:29:31.602071,18,EyesOpen
-20063.886948095198,-5691.000007510186,6988.407014418485,4557.408935714833,22453.847223978904,15125.604286861932,6347.694259607108,12040.169482251345,0.0,0.0,0.0,2019-03-17T21:29:31.609386,18,EyesOpen
-20160.066504486385,-5789.52649706918,6897.03308308519,4479.311940587991,22343.630772069788,15234.01024747017,6245.770304890908,11979.238626866178,0.0,0.0,0.0,2019-03-17T21:29:31.610152,18,EyesOpen
-20098.956835145575,-5734.697667920312,6853.290719186154,4258.9684437475735,22417.1903630722,14754.408866692647,6288.082157144804,11805.118537559336,0.0,0.0,0.0,2019-03-17T21:29:31.615921,18,EyesOpen
-19992.316662349305,-5624.63767822238,6942.854159218569,4302.174365779682,22536.23575404117,14583.842704754199,6394.163536329692,11841.82010195495,0.0,0.0,0.0,2019-03-17T21:29:31.616574,18,EyesOpen
-20043.6809711076,-5662.635643796402,6994.062005765678,4516.885223017362,22476.82481727896,15037.940745108217,6365.285082493435,12018.309476174054,0.012,1.018,0.194,2019-03-17T21:29:31.625316,18,EyesOpen
-20152.51161486049,-5772.673281749879,6916.635562972494,4501.08253968746,22353.443187885667,15271.516474666176,6259.4719242420115,12008.877040013915,0.0,0.0,0.0,2019-03-17T21:29:31.625971,18,EyesOpen
-20119.006349921983,-5753.85311291851,6849.0438877396455,4273.2288567100595,22391.061173803948,14842.295925890914,6268.770249935419,11825.905659902772,0.0,0.0,0.0,2019-03-17T21:29:31.631733,18,EyesOpen
-19997.032880429375,-5636.148826616863,6924.32456306512,4266.70214732911,22525.573971935984,14556.283003840805,6379.791364644929,11816.786148165005,0.0,0.0,0.0,2019-03-17T21:29:31.639411,18,EyesOpen
-20024.212601687028,-5658.321757116528,6989.837526063625,4485.279856357558,22495.1085442434,14943.549328273455,6376.796230887918,11993.342577617477,0.0,0.0,0.0,2019-03-17T21:29:31.640135,18,EyesOpen
-20147.61658282478,-5777.56831378559,6921.731760708304,4523.881319031873,22356.3265629204,15278.825495103061,6262.914092888128,12025.707903588762,0.0,0.0,0.0,2019-03-17T21:29:31.645574,18,EyesOpen
-20138.832347253843,-5771.153363126918,6850.83202729607,4318.75936016552,22368.28474620399,14942.76701721752,6252.945214861062,11858.62861378534,0.0,0.0,0.0,2019-03-17T21:29:31.646306,18,EyesOpen
-20017.708244050533,-5646.274166855117,6911.4946617477735,4257.694394313621,22508.296073472033,14566.944785945987,6364.681585393141,11807.130194560314,0.0,0.0,0.0,2019-03-17T21:29:31.653522,18,EyesOpen
-20009.706319535533,-5629.465655024726,6996.677159866948,4469.03013813855,22519.74016663315,14864.22298720157,6393.73885318504,11975.46118205323,0.0,0.0,0.0,2019-03-17T21:29:31.654382,18,EyesOpen
-20135.054902440894,-5758.61403448749,6942.988269685301,4552.2233310012025,22374.18560674019,15274.198684000814,6276.660415728142,12044.103389275479,0.0,0.0,0.0,2019-03-17T21:29:31.661560,18,EyesOpen
-20151.975172993563,-5787.984226701764,6851.144951718445,4355.282110605492,22343.161385436226,15031.726960149643,6231.085208783771,11888.468192633176,0.012,1.024,0.192,2019-03-17T21:29:31.662544,18,EyesOpen
-20033.555630869345,-5669.6093880664575,6885.521934690707,4239.634184793733,22475.439009122732,14582.92628323153,6334.260861189468,11798.390662478289,0.0,0.0,0.0,2019-03-17T21:29:31.668709,18,EyesOpen
-19993.546008294346,-5625.68821021178,6984.718976583359,4419.230451492125,22519.203724766223,14767.886968599198,6388.955579871605,11943.006449104125,0.0,0.0,0.0,2019-03-17T21:29:31.669435,18,EyesOpen
-20100.67791946863,-5720.280792746639,6968.0445752197,4561.3204909945125,22397.990214585094,15245.879023775939,6300.085043917304,12059.839017372014,0.0,0.0,0.0,2019-03-17T21:29:31.676152,18,EyesOpen
-20154.36680965028,-5777.948293441331,6870.590969394561,4400.231468705114,22338.601629567343,15124.486699639167,6233.700362885042,11934.222213533189,0.0,0.0,0.0,2019-03-17T21:29:31.676727,18,EyesOpen
-20059.57306141532,-5695.3809494234265,6871.4626874283185,4234.739152758021,22456.775302502552,14628.635600642634,6316.625334814231,11799.62000842333,0.0,0.0,0.0,2019-03-17T21:29:31.684157,18,EyesOpen
-19990.081487903775,-5631.432608536793,6969.85506652058,4376.918599238229,22535.78871915206,14688.225351360483,6399.662065465697,11909.54588765453,0.0,0.0,0.0,2019-03-17T21:29:31.684812,18,EyesOpen
-20075.107523811763,-5702.980542538231,6981.768546315258,4563.309796251035,22434.580020258432,15190.804325438063,6333.500901877988,12059.727258649738,0.0,0.0,0.0,2019-03-17T21:29:31.691197,18,EyesOpen
-20150.61171658179,-5777.009520174208,6883.0855945450785,4445.940786116217,22340.36741737931,15190.62551148242,6239.511816443422,11960.820789435005,0.0,0.0,0.0,2019-03-17T21:29:31.692077,18,EyesOpen
-20084.137628571705,-5717.062141545074,6855.280024442676,4242.182283661638,22427.315703310454,14682.503304779924,6291.680788002109,11792.3333397309,0.0,0.0,0.0,2019-03-17T21:29:31.699364,18,EyesOpen
-19991.601406526734,-5629.5774137470025,6953.04655469019,4335.344354551358,22529.79845163804,14614.956333035987,6385.155783314202,11862.651927787296,0.01,1.022,0.194,2019-03-17T21:29:31.705734,18,EyesOpen
-20056.644982891678,-5688.988350509209,6990.821002819658,4545.204883242236,22449.421578576756,15110.248638421135,6338.306526935879,12035.162691493357,0.0,0.0,0.0,2019-03-17T21:29:31.706497,18,EyesOpen
-20159.954745764106,-5775.735470740256,6903.023350599212,4484.341083090435,22334.108928931826,15252.316326179067,6235.086171041271,11988.715766515228,0.0,0.0,0.0,2019-03-17T21:29:31.713829,18,EyesOpen
-20098.21922757855,-5719.0961502905075,6859.97389077829,4271.708938087098,22401.81236288695,14784.337852518303,6274.33583430479,11818.618991210342,0.0,0.0,0.0,2019-03-17T21:29:31.714482,18,EyesOpen
-19984.58295876777,-5616.568698474014,6948.017412187745,4311.942078106651,22523.65172191283,14590.145896690596,6383.144126313225,11849.06206715847,0.0,0.0,0.0,2019-03-17T21:29:31.720882,18,EyesOpen
-20034.472052392015,-5662.12155367393,6995.268999966264,4529.670420845798,22466.78888401853,15034.342114250912,6357.30550972289,12027.630153611917,0.0,0.0,0.0,2019-03-17T21:29:31.721613,18,EyesOpen
-20149.516481103477,-5775.623712017979,6915.048589116167,4522.674324831286,22335.89706848825,15289.5096289527,6246.507912457933,12028.278354201122,0.0,0.0,0.0,2019-03-17T21:29:31.728413,18,EyesOpen
-20119.78866097792,-5758.077592620563,6843.411248136908,4296.2958569879365,22364.887281046784,14874.773010584477,6250.866502626718,11846.335154334922,0.0,0.0,0.0,2019-03-17T21:29:31.729066,18,EyesOpen
-19995.557665295324,-5633.712486471234,6916.456749016852,4279.710862602099,22505.256236226112,14569.738754002901,6369.934245340139,11833.326439061933,0.0,0.0,0.0,2019-03-17T21:29:31.736541,18,EyesOpen
-19999.96095895302,-5625.3529340449495,6998.733520356837,4506.357551378912,22499.243616967633,14946.119778885815,6382.965312357583,12015.694322072784,0.0,0.0,0.0,2019-03-17T21:29:31.737525,18,EyesOpen
-20117.911114443676,-5737.625746443957,6941.133074895511,4561.007566572138,22362.115664734327,15306.899286138927,6270.178409836103,12061.805970884083,0.014,1.022,0.194,2019-03-17T21:29:31.744438,18,EyesOpen
-20131.635085539234,-5756.155342597407,6851.3908209074525,4347.727220979598,22352.05737972944,14978.261587412548,6238.193063520559,11885.271893176066,0.0,0.0,0.0,2019-03-17T21:29:31.745136,18,EyesOpen
-20012.455584103536,-5642.854349953455,6900.005865097745,4273.072394498872,22488.715945329186,14575.192579649995,6345.615547372765,11819.401302266277,0.0,0.0,0.0,2019-03-17T21:29:31.751029,18,EyesOpen
-19988.539217536356,-5615.048779851053,6992.966770287368,4477.41204230929,22511.73824211815,14850.230795172549,6386.0275013479595,11983.887789712882,0.0,0.0,0.0,2019-03-17T21:29:31.751658,18,EyesOpen
-20107.11522187176,-5729.690877162323,6946.899824964979,4571.579941699498,22373.269185217523,15274.31044272309,6275.878104672206,12061.671860417351,0.0,0.0,0.0,2019-03-17T21:29:31.758265,18,EyesOpen
-20141.916887988675,-5769.409927059403,6847.143989460945,4376.449212604668,22329.3703591073,15052.491730748623,6216.377760932179,11904.717910852183,0.0,0.0,0.0,2019-03-17T21:29:31.765979,18,EyesOpen
-20028.459433133536,-5656.198341393273,6872.177943250888,4243.903367984697,22458.652849036796,14584.26738789885,6311.283267889413,11798.61417992284,0.0,0.0,0.0,2019-03-17T21:29:31.766941,18,EyesOpen
-19978.682098231566,-5609.1479193148525,6974.995967745301,4419.610431147866,22512.766422363096,14742.87536655371,6373.219951775069,11937.440864734754,0.0,0.0,0.0,2019-03-17T21:29:31.773922,18,EyesOpen
-20083.73529717151,-5709.909583319376,6970.905598509979,4575.267979534624,22394.682156405706,15231.663314302365,6286.919866433128,12065.605767441484,0.0,0.0,0.0,2019-03-17T21:29:31.774705,18,EyesOpen
-20148.51065260299,-5780.541095798147,6876.536533419673,4422.426750949234,22318.865039213306,15141.18345274728,6206.27477243838,11942.626469448385,0.0,0.0,0.0,2019-03-17T21:29:31.780512,18,EyesOpen
-20049.35831419925,-5688.541315620103,6874.189600251866,4244.842141251819,22430.82492718994,14641.599612426713,6283.4329942981,11797.161316533246,0.016,1.022,0.198,2019-03-17T21:29:31.781232,18,EyesOpen
-19971.082505116763,-5604.074073323497,6979.488668380817,4381.567762084933,22520.99186432265,14670.947452896531,6374.4045942312,11904.270875963079,0.0,0.0,0.0,2019-03-17T21:29:31.788795,18,EyesOpen
-20065.36216322925,-5686.373196407938,6991.603313875594,4568.562456198032,22415.089299093404,15167.647918182365,6304.778910252919,12059.503741205186,0.0,0.0,0.0,2019-03-17T21:29:31.789677,18,EyesOpen
-20150.41055088169,-5783.223305132783,6890.9534085933465,4463.375146791357,22315.333463589366,15204.952979678272,6207.928801528073,11978.255150110144,0.0,0.0,0.0,2019-03-17T21:29:31.796606,18,EyesOpen
-20069.094904553283,-5710.267211230661,6863.639576868961,4261.047155981917,22407.15442981177,14709.191287659562,6265.216322567025,11817.72492143213,0.0,0.0,0.0,2019-03-17T21:29:31.797257,18,EyesOpen
-19974.167045851595,-5609.416140248316,6956.779296014225,4334.025601628495,22517.236771254156,14605.32273117575,6364.748640626507,11879.326329150956,0.0,0.0,0.0,2019-03-17T21:29:31.804017,18,EyesOpen
-20037.10955823774,-5663.015623452142,6987.9823312738345,4539.639298872865,22441.06202615047,15086.019347431584,6318.748750537486,12050.272470745143,0.0,0.0,0.0,2019-03-17T21:29:31.804675,18,EyesOpen
-20143.32504788936,-5773.321482339083,6895.311998762131,4485.726891246663,22318.976797935582,15247.331887165534,6209.068740495293,12009.569944092029,0.0,0.0,0.0,2019-03-17T21:29:31.811377,18,EyesOpen
-20092.45247750908,-5734.071819075563,6845.892291771447,4266.9480165181185,22382.321641721923,14794.686710201111,6241.255252510936,11837.617973997352,0.0,0.0,0.0,2019-03-17T21:29:31.812191,18,EyesOpen
-19971.37307779468,-5616.144015329363,6938.115589394044,4301.593220423844,22520.701291644727,14580.713460530456,6361.373527213756,11863.814218498972,0.0,0.0,0.0,2019-03-17T21:29:31.818429,18,EyesOpen
-20022.066834219317,-5654.946643703776,6987.401185917996,4513.353647393424,22463.324363627955,14999.272227200536,6334.953765267583,12034.872118815438,0.016,1.018,0.198,2019-03-17T21:29:31.826396,18,EyesOpen
-20145.26964965697,-5779.043528919641,6905.504394233751,4513.063074715505,22322.2178008816,15271.73999211073,6213.740255086453,12035.922650804836,0.0,0.0,0.0,2019-03-17T21:29:31.827328,18,EyesOpen
-20116.234733609526,-5757.183522842351,6836.683373055861,4294.485365687056,22352.593821596365,14884.5630746559,6216.08718825426,11863.098962676402,0.0,0.0,0.0,2019-03-17T21:29:31.833408,18,EyesOpen
-19992.651938516134,-5636.148826616863,6906.2196500563205,4261.673004826665,22492.806314564506,14556.193596862984,6331.712762321564,11836.187462352213,0.0,0.0,0.0,2019-03-17T21:29:31.834045,18,EyesOpen
-20000.13977290866,-5639.1439603738745,6981.790898059714,4476.517972531077,22480.02111673607,14906.244266777549,6345.123808994747,12010.285199914599,0.0,0.0,0.0,2019-03-17T21:29:31.840863,18,EyesOpen
