eeg1,eeg2,eeg3,eeg4,eeg5,eeg6,eeg7,eeg8,accx,accy,accz,iso_utc,session_id,command_name
0.0,0.0,0.0,0.0,0.0,0.0,0.0,0.0,0.0,0.0,0.0,2019-03-17T21:15:23.589404,2,EyesOpen
7848.323327103059,16553.970164533876,-4786.156688470446,-4427.768817874053,35941.29215971138,-3703.572297522104,7954.71763071032,4800.7523775997615,-0.012,1.006,0.268,2019-03-17T21:15:23.604769,2,EyesOpen
7743.493645607668,16481.30464330967,-4875.876590714049,-4479.446051054722,35889.27965036388,-3319.5693277799282,7899.307656205614,4799.679493865907,0.0,0.0,0.0,2019-03-17T21:15:23.610872,2,EyesOpen
7550.754553169555,16303.004777789687,-5088.888715373125,-4668.16182949088,35709.68338366549,-3216.036047462946,7708.6249242573895,4635.617689563953,0.0,0.0,0.0,2019-03-17T21:15:23.617105,2,EyesOpen
7599.570763059946,16323.166051288374,-5055.226988223432,-4666.574855634553,35721.97684311591,-3606.0069329746884,7720.851328474442,4593.417596032333,0.0,0.0,0.0,2019-03-17T21:15:23.617549,2,EyesOpen
7782.340977470992,16487.898407923985,-4861.549122518197,-4495.963990207194,35881.45653980452,-3781.602237415581,7896.938371293351,4733.294812833645,0.0,0.0,0.0,2019-03-17T21:15:23.624376,2,EyesOpen
7734.374133869903,16468.005355358764,-4894.070910700669,-4495.98634195165,35869.028969887375,-3434.3231838134748,7891.864525301997,4775.092574965069,0.0,0.0,0.0,2019-03-17T21:15:23.624795,2,EyesOpen
7570.893474923787,16320.439138464826,-5071.074375042245,-4643.4408001233105,35730.55991298675,-3194.265448363477,7750.7132590667325,4668.474753913254,0.0,0.0,0.0,2019-03-17T21:15:23.632447,2,EyesOpen
7576.414355804248,16300.322568455049,-5079.411575724074,-4685.730300632751,35709.906901110044,-3527.082923302999,7724.449959331747,4598.312628068045,-0.006,1.006,0.274,2019-03-17T21:15:23.632906,2,EyesOpen
7771.656843621355,16464.429076245913,-4881.173954149956,-4521.064999230504,35871.73353096647,-3788.0171880742537,7892.579781124567,4725.739923207751,0.0,0.0,0.0,2019-03-17T21:15:23.640514,2,EyesOpen
7788.085375796006,16500.773012730242,-4856.095296871102,-4467.4655160266775,35911.51963609691,-3492.2365536971756,7938.400857257946,4814.364589973044,0.0,0.0,0.0,2019-03-17T21:15:23.641004,2,EyesOpen
7609.65139980929,16352.37978129146,-5036.563281603251,-4613.511814297654,35771.93299197352,-3175.7582039544827,7792.980407831718,4716.776873681173,0.0,0.0,0.0,2019-03-17T21:15:23.647380,2,EyesOpen
7569.999405145575,16296.187495730817,-5088.709901417483,-4691.675864657863,35708.83401737619,-3426.0753901094668,7724.785235498576,4617.065741666048,0.0,0.0,0.0,2019-03-17T21:15:23.648260,2,EyesOpen
7718.571450540001,16419.7255873353,-4931.152454752023,-4572.205790544247,35826.53830367784,-3784.396205472494,7852.190178893827,4689.26187625669,0.0,0.0,0.0,2019-03-17T21:15:23.655260,2,EyesOpen
7790.991102575195,16499.342501085102,-4844.740610687806,-4468.761917205085,35911.51963609691,-3571.3840808134178,7952.325994053602,4808.597839903574,0.0,0.0,0.0,2019-03-17T21:15:23.655833,2,EyesOpen
7637.524025145058,16370.57410127808,-5005.628467277106,-4588.522563996621,35789.970849748956,-3194.198393130111,7828.564385004567,4740.045039659148,0.0,0.0,0.0,2019-03-17T21:15:23.663625,2,EyesOpen
7545.077210077908,16267.666669805845,-5115.1073116192,-4710.07135034458,35684.8729473201,-3367.9385027812127,7713.162328381816,4606.538070027598,0.0,0.0,0.0,2019-03-17T21:15:23.664275,2,EyesOpen
7687.413118769303,16380.230054882773,-4965.909417380026,-4606.359256071956,35798.33040217524,-3764.8607808185557,7827.3126873150695,4655.600149106997,0.0,0.0,0.0,2019-03-17T21:15:23.670367,2,EyesOpen
7792.891000853897,16488.45720153537,-4845.165293832457,-4479.110774887893,35908.43509536208,-3655.605453921015,7948.19092132937,4781.70869132384,-0.008,1.002,0.278,2019-03-17T21:15:23.676747,2,EyesOpen
7651.94090031873,16375.223264124783,-4992.977379915403,-4584.633360461397,35801.52670163235,-3256.6715188826943,7841.327231088547,4734.010068656215,0.0,0.0,0.0,2019-03-17T21:15:23.677420,2,EyesOpen
7540.182178042195,16260.357649368962,-5125.031486157356,-4715.033437613659,35685.74466535386,-3315.970696922624,7717.05153191704,4605.5769450160205,0.0,0.0,0.0,2019-03-17T21:15:23.684940,2,EyesOpen
7650.756257862599,16346.456569010803,-5007.260144622343,-4641.920881500349,35771.284791384314,-3730.2602804017406,7798.478936967724,4625.022962692137,0.0,0.0,0.0,2019-03-17T21:15:23.685583,2,EyesOpen
7785.269055994637,16471.179303071418,-4855.827075937638,-4494.779347751063,35902.91421448162,-3728.8074170121454,7941.731267181786,4758.887560234972,0.0,0.0,0.0,2019-03-17T21:15:23.692893,2,EyesOpen
7680.394671010336,16386.376784607983,-4965.9317691244805,-4555.956072325239,35830.159286279595,-3316.350676578364,7873.536094848645,4750.572711297597,0.0,0.0,0.0,2019-03-17T21:15:23.693584,2,EyesOpen
7524.178329012196,16240.665762503835,-5141.370611354186,-4717.961516137304,35682.526014152296,-3278.4644697266185,7719.24200287366,4606.336904327501,0.0,0.0,0.0,2019-03-17T21:15:23.699643,2,EyesOpen
7631.757275075588,16324.931839100343,-5035.7809705473155,-4655.622500851453,35756.77850923282,-3657.7959248776347,7786.319587984037,4616.171671887836,0.0,0.0,0.0,2019-03-17T21:15:23.700337,2,EyesOpen
7791.706358397765,16464.809055901653,-4858.53163701673,-4495.4051965958115,35909.30681339584,-3761.843295317089,7943.675868949398,4751.355022353533,0.0,0.0,0.0,2019-03-17T21:15:23.707697,2,EyesOpen
7745.795875286565,16442.926698079908,-4898.138928191534,-4494.622885539876,35898.22034814601,-3352.8957787627915,7941.105418337038,4801.75820610025,0.0,0.0,0.0,2019-03-17T21:15:23.708590,2,EyesOpen
7561.416335274736,16280.585978101013,-5095.862459643181,-4669.480582413743,35731.230465320405,-3213.487948595041,7768.237026719693,4659.131724730936,-0.004,1.004,0.28,2019-03-17T21:15:23.715869,2,EyesOpen
7579.007158161064,16272.204073930274,-5088.687549673027,-4699.878954872961,35721.373346015615,-3607.482148108739,7752.322584667514,4589.215468074735,0.0,0.0,0.0,2019-03-17T21:15:23.716744,2,EyesOpen
7770.606311631956,16447.374695226514,-4881.531582061241,-4518.874528273885,35895.64989753364,-3790.9452665978993,7931.225947287792,4734.635917500963,0.0,0.0,0.0,2019-03-17T21:15:23.722769,2,EyesOpen
7743.7842182855875,16444.603078914057,-4899.8376607701375,-4500.590801309443,35896.76748475641,-3453.2774631115753,7940.099589836549,4790.001188516759,0.0,0.0,0.0,2019-03-17T21:15:23.723406,2,EyesOpen
7555.180198571707,16272.762867541656,-5098.567020722273,-4670.866390569972,35726.9836338739,-3224.5073586115077,7773.243817477682,4660.294015442612,0.0,0.0,0.0,2019-03-17T21:15:23.729329,2,EyesOpen
7540.718619909123,16233.69201823378,-5124.226823356966,-4724.309411562612,35687.42104618801,-3547.087734590499,7730.7531512681435,4571.490534721677,0.0,0.0,0.0,2019-03-17T21:15:23.737912,2,EyesOpen
7722.483005819679,16393.73050853378,-4934.572271653685,-4565.321453252012,35842.408042241106,-3830.4184473059713,7888.779984567164,4684.523306432165,0.0,0.0,0.0,2019-03-17T21:15:23.738579,2,EyesOpen
7767.25354996366,16447.17352952642,-4877.307102359188,-4479.893085943829,35902.6236418037,-3542.1927025547866,7957.891578422974,4790.224705961312,0.0,0.0,0.0,2019-03-17T21:15:23.744567,2,EyesOpen
7605.829251507432,16309.866763337466,-5051.091915499201,-4612.371875330434,35770.32366637274,-3206.9835909585468,7825.390437291913,4702.270591529678,0.0,0.0,0.0,2019-03-17T21:15:23.745204,2,EyesOpen
7542.640869932279,16237.06713164653,-5126.305535591309,-4709.669018944385,35696.38409571458,-3448.673003753782,7737.8610060049305,4585.594485472976,0.0,0.0,0.0,2019-03-17T21:15:23.752528,2,EyesOpen
7700.265371831104,16362.326307574072,-4966.155286569034,-4590.735386697696,35820.860960586186,-3811.4418162634156,7856.101734173505,4653.4767333837435,-0.012,0.996,0.28600000000000003,2019-03-17T21:15:23.753225,2,EyesOpen
7781.804535604065,16457.432980231402,-4872.8367534681265,-4477.926132431761,35915.587653587776,-3618.0545232360987,7963.881845936996,4780.792269801173,0.0,0.0,0.0,2019-03-17T21:15:23.760670,2,EyesOpen
7638.172225734262,16345.629554465957,-5025.610926820151,-4586.95794188475,35802.17490222155,-3226.071980723379,7853.978318450251,4726.6786964748735,0.0,0.0,0.0,2019-03-17T21:15:23.761567,2,EyesOpen
7544.339602510882,16245.136111394897,-5132.966355438991,-4704.438710741843,35697.09935153715,-3360.5400753665062,7741.303174651048,4603.1182531259365,0.0,0.0,0.0,2019-03-17T21:15:23.767262,2,EyesOpen
7683.479211745169,16349.451702767814,-4985.198972844955,-4602.67121823683,35808.52279764686,-3757.1941324703853,7849.798542237108,4651.867407782961,0.0,0.0,0.0,2019-03-17T21:15:23.768151,2,EyesOpen
7781.871590837431,16446.90530859295,-4868.522866788253,-4482.88821970084,35914.335955898285,-3682.1593263339196,7968.083973894593,4771.315130152122,0.0,0.0,0.0,2019-03-17T21:15:23.775286,2,EyesOpen
7626.906946528787,16328.731635657745,-5022.079351196212,-4593.57405824352,35798.620974853155,-3291.7190541886157,7855.811161495586,4717.112149848002,0.0,0.0,0.0,2019-03-17T21:15:23.776206,2,EyesOpen
7505.045235758453,16206.489945231671,-5164.63877733216,-4735.820559957095,35672.11010123612,-3323.771455737526,7724.137034909372,4583.873401149917,0.0,0.0,0.0,2019-03-17T21:15:23.783190,2,EyesOpen
7615.9992952345965,16287.962053771265,-5052.388316677609,-4667.759498090684,35756.197363876985,-3729.4779693458045,7808.2913527836035,4605.040503149093,0.0,0.0,0.0,2019-03-17T21:15:23.783851,2,EyesOpen
7768.102916252961,16438.29988697766,-4889.6229135540625,-4509.0844642024595,35905.05998194933,-3745.303004420162,7966.988738416284,4754.126638665991,0.0,0.0,0.0,2019-03-17T21:15:23.790489,2,EyesOpen
7679.500601232124,16373.189255379351,-4978.292283808266,-4559.130020037892,35851.549905723325,-3329.1582261512553,7916.5184994362,4763.916702737415,-0.022,0.998,0.28600000000000003,2019-03-17T21:15:23.791126,2,EyesOpen
7536.024753573508,16241.962163682243,-5142.711716021504,-4708.193803810335,35710.55510169925,-3249.250739723532,7769.734593598198,4636.109427941969,0.0,0.0,0.0,2019-03-17T21:15:23.796975,2,EyesOpen
7629.566804118968,16302.289521967117,-5055.539912645807,-4657.388288663422,35771.79888150679,-3629.7221338417694,7828.296164071103,4637.674050053841,0.0,0.0,0.0,2019-03-17T21:15:23.805559,2,EyesOpen
7790.387605474903,16445.787721370187,-4875.8318872251375,-4487.582086036455,35921.734383312985,-3755.651862102969,7988.245247393281,4775.696072065362,0.0,0.0,0.0,2019-03-17T21:15:23.806363,2,EyesOpen
7722.259488375126,16405.755747050734,-4938.6402891445505,-4504.010618211105,35886.70919975152,-3372.7888313280146,7960.774953457708,4803.971028801326,0.0,0.0,0.0,2019-03-17T21:15:23.813411,2,EyesOpen
7537.29880300746,16239.905803192354,-5143.046992188334,-4681.5952279085195,35714.5784157012,-3207.4753293365634,7783.0562332935615,4657.388288663422,0.0,0.0,0.0,2019-03-17T21:15:23.814297,2,EyesOpen
7552.408582259248,16228.104082119953,-5133.569852539284,-4708.372617765977,35702.46377020643,-3582.6270082744372,7764.928968540307,4590.020130875127,0.0,0.0,0.0,2019-03-17T21:15:23.820043,2,EyesOpen
7722.661819775322,16381.213531638807,-4947.670393904495,-4545.89778732035,35849.27002778888,-3819.175519844952,7921.860566361019,4708.394969510433,0.0,0.0,0.0,2019-03-17T21:15:23.820781,2,EyesOpen
7740.766732784121,16428.353360695048,-4922.681143603461,-4482.396481322823,35888.7208567525,-3466.0179574511003,7972.129639641004,4801.624095633519,0.0,0.0,0.0,2019-03-17T21:15:23.827307,2,EyesOpen
7574.380347058815,16290.040766005608,-5101.808023668293,-4623.838320236006,35745.26736083834,-3184.5424395254186,7828.005591393184,4701.153004306913,0.0,0.0,0.0,2019-03-17T21:15:23.827868,2,EyesOpen
7547.267681034527,16237.134186879897,-5140.834169487259,-4690.290056501634,35691.332601467686,-3492.9518095197454,7776.440116934791,4607.879174694917,-0.022,1.006,0.28,2019-03-17T21:15:23.835444,2,EyesOpen
7719.800796485043,16376.139685647451,-4962.623710945095,-4545.89778732035,35829.62284441267,-3808.759606928779,7924.8109966291195,4704.125786319469,0.0,0.0,0.0,2019-03-17T21:15:23.836073,2,EyesOpen
7779.837582091997,16445.139520780984,-4890.002893209803,-4448.466533239667,35910.73732504098,-3526.9488128362673,8016.140224473504,4827.172139545934,0.0,0.0,0.0,2019-03-17T21:15:23.843532,2,EyesOpen
7599.637818293312,16293.259417207173,-5077.645787912105,-4596.278619322613,35770.457776839474,-3184.363625569776,7869.758650035697,4734.859434945516,0.0,0.0,0.0,2019-03-17T21:15:23.844165,2,EyesOpen
7518.880965576287,16196.275198015595,-5171.634873346672,-4711.725379434273,35677.87685130559,-3419.4145702617852,7767.655881363855,4607.119215383436,0.0,0.0,0.0,2019-03-17T21:15:23.850267,2,EyesOpen
7684.887371645853,16330.072740325064,-4998.118281140123,-4580.006549359149,35811.58498663724,-3788.196002029896,7902.883935318463,4689.7536146347065,0.0,0.0,0.0,2019-03-17T21:15:23.851243,2,EyesOpen
7790.186439774805,16435.19299449837,-4880.257532627289,-4450.92522512975,35925.55653161485,-3603.7717585291575,8029.506567657777,4835.308174527666,0.0,0.0,0.0,2019-03-17T21:15:23.857250,2,EyesOpen
7593.6922542682005,16279.870722278443,-5076.058814055778,-4605.018151404637,35773.89994548559,-3245.316832699398,7877.313539661592,4740.380315825977,0.0,0.0,0.0,2019-03-17T21:15:23.865075,2,EyesOpen
7519.596221398858,16203.695977174757,-5171.076079735289,-4705.176318308869,35685.364685698114,-3342.8151420134477,7784.643207149888,4637.495236098199,0.0,0.0,0.0,2019-03-17T21:15:23.865797,2,EyesOpen
7657.03709805454,16305.619931890957,-5033.657554824061,-4606.448663049778,35789.188538693015,-3750.466257389338,7894.189106725348,4682.221076753268,0.0,0.0,0.0,2019-03-17T21:15:23.872997,2,EyesOpen
7774.339052955992,16417.266895445217,-4904.062140472191,-4466.482039270644,35907.831598261786,-3691.6588177274252,8028.478387412833,4815.750398129273,-0.02,1.012,0.272,2019-03-17T21:15:23.873750,2,EyesOpen
7633.500711143102,16304.904676068387,-5045.101647985179,-4556.3360519809785,35804.41007666708,-3286.265228541521,7930.264822276214,4776.523086610208,0.0,0.0,0.0,2019-03-17T21:15:23.879946,2,EyesOpen
7487.990854739053,16167.39674417934,-5210.683370910093,-4715.12284459148,35655.12277545009,-3310.6286299978055,7775.121364011928,4623.972430702738,0.0,0.0,0.0,2019-03-17T21:15:23.880596,2,EyesOpen
7606.522155585547,16260.871739491433,-5099.751663178404,-4647.799390292095,35731.25281706486,-3720.693733774869,7851.072591671061,4642.189102433813,0.0,0.0,0.0,2019-03-17T21:15:23.887901,2,EyesOpen
7776.417765190336,16425.939372293877,-4913.11459697659,-4469.678338727754,35892.90063296564,-3749.371021911028,8024.142148988503,4802.227592733811,0.0,0.0,0.0,2019-03-17T21:15:23.888556,2,EyesOpen
7675.56669420799,16349.272888812173,-5011.03758943529,-4524.37305740989,35833.444992714525,-3347.7995810269813,7969.425078561912,4798.718368854328,0.0,0.0,0.0,2019-03-17T21:15:23.895705,2,EyesOpen
7501.088976989863,16189.323805489996,-5207.375312730707,-4701.890611873939,35664.398749399035,-3267.0427283099566,7796.266114266648,4643.1502274453915,0.0,0.0,0.0,2019-03-17T21:15:23.896405,2,EyesOpen
7575.922617426231,16233.088521133486,-5133.949832195024,-4669.927617302849,35705.235386518885,-3650.509256185205,7838.2873938426255,4626.073494681536,0.0,0.0,0.0,2019-03-17T21:15:23.902366,2,EyesOpen
7767.4994191526675,16397.597360324547,-4931.018344285291,-4483.111737145393,35872.85111818923,-3778.5624001696588,8020.767035575752,4778.490040122276,0.0,0.0,0.0,2019-03-17T21:15:23.903003,2,EyesOpen
7722.460654075224,16378.598377537535,-4971.117373838112,-4480.049548155016,35856.82491741478,-3390.3796542143414,8009.904087770473,4820.488967953797,0.0,0.0,0.0,2019-03-17T21:15:23.910472,2,EyesOpen
7522.479596433592,16203.628921941392,-5182.162544985121,-4665.97135853426,35678.323886194696,-3210.2469456490217,7824.675181469343,4669.145306246914,-0.024,1.01,0.272,2019-03-17T21:15:23.911354,2,EyesOpen
7554.621404960323,16209.507430733138,-5159.49787610744,-4678.376576706955,35684.20239498644,-3552.787429426602,7821.344771545502,4619.144453900391,0.0,0.0,0.0,2019-03-17T21:15:23.917563,2,EyesOpen
7713.542308037557,16344.623725965468,-4987.434147290486,-4538.164083738814,35823.11848677618,-3810.391284274016,7964.552398270655,4723.616507484497,0.0,0.0,0.0,2019-03-17T21:15:23.925324,2,EyesOpen
7715.017523171607,16368.316575088094,-4976.750013440849,-4500.657856542809,35848.3089027773,-3479.9877977356673,7999.689340554398,4801.199412488868,0.0,0.0,0.0,2019-03-17T21:15:23.926194,2,EyesOpen
7532.426122716203,16212.100233089952,-5170.941969268557,-4664.227922466746,35694.23832824687,-3188.8339744608375,7845.797579979609,4690.647684412919,0.0,0.0,0.0,2019-03-17T21:15:23.931956,2,EyesOpen
7512.287200961972,16168.96136629121,-5205.8330423632915,-4720.956649894315,35650.831240514664,-3464.6545010393265,7795.30498925507,4605.331075827012,0.0,0.0,0.0,2019-03-17T21:15:23.932889,2,EyesOpen
7709.04960740204,16344.020228865174,-4995.525478783307,-4544.75784835313,35822.71615537598,-3761.9550540393657,7971.995529174273,4729.047981387136,0.0,0.0,0.0,2019-03-17T21:15:23.940255,2,EyesOpen
7751.227349189205,16406.91803776241,-4937.545053666241,-4462.794001435519,35890.33018235328,-3522.0314290560996,8046.985631821827,4829.742590158295,0.0,0.0,0.0,2019-03-17T21:15:23.941058,2,EyesOpen
7569.775887701022,16253.585070799003,-5128.630117014661,-4612.416578819344,35743.41216604855,-3178.0604336333795,7896.491336404245,4730.098513376536,0.0,0.0,0.0,2019-03-17T21:15:23.948108,2,EyesOpen
7501.401901412238,16171.375354692384,-5215.354885501252,-4714.005257368714,35655.63686557256,-3376.4321656742295,7803.910410870363,4609.354389828967,0.0,0.0,0.0,2019-03-17T21:15:23.948993,2,EyesOpen
7666.871865614876,16300.99312078871,-5043.894653784591,-4583.359311027445,35790.596698593705,-3755.584806869603,7939.071409591605,4686.490259944232,-0.014,1.006,0.276,2019-03-17T21:15:23.955235,2,EyesOpen
7747.472256120713,16381.884083972465,-4948.0280218157795,-4481.748280733619,35878.461406047514,-3623.351886672007,8037.664954383965,4798.04781652067,0.0,0.0,0.0,2019-03-17T21:15:23.955879,2,EyesOpen
7602.007103205575,16265.386791871404,-5102.545631235317,-4597.105633867459,35761.584134290715,-3224.261489422499,7924.878051862485,4740.894405948449,0.0,0.0,0.0,2019-03-17T21:15:23.962684,2,EyesOpen
7502.4747851460925,16177.991471051155,-5212.98560058899,-4713.915850390894,35661.29185691975,-3302.313781060431,7818.55080348859,4628.576890060531,0.0,0.0,0.0,2019-03-17T21:15:23.963313,2,EyesOpen
7624.023571494052,16266.683193049812,-5089.425157240053,-4637.696401798296,35750.40826206306,-3725.9016902329554,7908.5165749212,4657.053012496593,0.0,0.0,0.0,2019-03-17T21:15:23.970694,2,EyesOpen
7756.211788202738,16385.30390087413,-4946.642213659551,-4494.980513451161,35878.37199906969,-3690.54123050466,8046.158617276981,4796.974932786815,0.0,0.0,0.0,2019-03-17T21:15:23.971378,2,EyesOpen
7632.852510553898,16289.03493750512,-5066.492267428907,-4570.4176509878225,35795.759951562875,-3271.446021967652,7963.993604659272,4777.260694177234,0.0,0.0,0.0,2019-03-17T21:15:23.977821,2,EyesOpen
7474.28923538795,16142.362790389394,-5237.214891578543,-4731.685487232863,35640.6611967875,-3271.781298134482,7804.849184137486,4625.939384214805,0.0,0.0,0.0,2019-03-17T21:15:23.984094,2,EyesOpen
7587.657283265267,16238.050608402564,-5125.992611168935,-4658.260006697179,35715.31602326823,-3673.240980296252,7889.696406089832,4645.273643168645,0.0,0.0,0.0,2019-03-17T21:15:23.984963,2,EyesOpen
7797.718977656243,16430.990866540775,-4907.660771329495,-4443.169169803759,35905.08233369378,-3696.7103119743247,8091.711472476897,4833.162407059956,0.0,0.0,0.0,2019-03-17T21:15:23.992253,2,EyesOpen
7700.041854386552,16351.28454581315,-5005.606115532651,-4497.975647208172,35839.97170209548,-3307.544089262973,8028.836015324118,4825.652220922973,-0.012,1.01,0.272,2019-03-17T21:15:23.993093,2,EyesOpen
7511.929573050687,16179.690203629758,-5213.857318622747,-4682.0646145420815,35661.336560408665,-3209.4422828486304,7842.824797967053,4665.881951556439,0.0,0.0,0.0,2019-03-17T21:15:24.000353,2,EyesOpen
7528.87219534781,16170.950671547733,-5203.9554958290455,-4703.2540682857125,35649.803060269725,-3632.9407850433336,7827.73737045972,4600.3019333245675,0.0,0.0,0.0,2019-03-17T21:15:24.001000,2,EyesOpen
7739.917366494819,16367.578967521069,-4980.952141398447,-4496.768653007585,35838.18356253905,-3775.857839090567,8031.384114192023,4773.70676680884,0.0,0.0,0.0,2019-03-17T21:15:24.007415,2,EyesOpen
7710.0330841580735,16368.607147766013,-4998.073577651212,-4475.668606241776,35843.88325737516,-3393.0395118045226,8044.3257742316455,4836.068133839147,0.0,0.0,0.0,2019-03-17T21:15:24.008310,2,EyesOpen
7509.090901504863,16188.116811289408,-5208.6493621646605,-4660.6963468428075,35666.365702911105,-3192.1420326402226,7861.980242965251,4686.4679081997765,0.0,0.0,0.0,2019-03-17T21:15:24.014918,2,EyesOpen
7508.129776493285,16168.000241279631,-5221.076932081811,-4706.629181698463,35638.06839443069,-3546.0148508566444,7834.152321118394,4607.00745666116,0.0,0.0,0.0,2019-03-17T21:15:24.015574,2,EyesOpen
7692.688130460755,16320.908525098388,-5029.343668144187,-4545.13782800887,35790.26142242687,-3817.9908773888205,7997.431814364411,4725.806978441117,0.0,0.0,0.0,2019-03-17T21:15:24.023051,2,EyesOpen
7703.349912565936,16349.8093306791,-5005.13672889909,-4489.213763381692,35827.38766996714,-3509.9167835613234,8041.665916641465,4810.005999804259,0.0,0.0,0.0,2019-03-17T21:15:24.023818,2,EyesOpen
7501.558363623424,16185.814581610512,-5211.376274988208,-4655.801314807095,35662.99058949835,-3213.3761898727644,7872.08323145905,4688.703082645307,0.0,0.0,0.0,2019-03-17T21:15:24.031021,2,EyesOpen
7494.718729820101,16162.14408423234,-5237.259595067453,-4701.957667107305,35628.94888269292,-3457.390184091352,7834.845225196508,4616.641058521397,-0.014,1.006,0.28200000000000003,2019-03-17T21:15:24.031661,2,EyesOpen
7660.211045767194,16299.786126588122,-5062.692470871505,-4562.013395072627,35767.90967797157,-3810.391284274016,7977.449354821367,4706.293905531634,0.0,0.0,0.0,2019-03-17T21:15:24.038140,2,EyesOpen
7714.704598749233,16362.61688025199,-4987.210629845933,-4469.410117794289,35845.894914376135,-3587.544392054605,8061.491913973322,4816.018619062736,0.0,0.0,0.0,2019-03-17T21:15:24.038800,2,EyesOpen
7546.418314745226,16224.7289687072,-5166.203399444032,-4607.72271248373,35711.11389531063,-3211.2080706606,7925.638011173965,4730.925527921382,0.0,0.0,0.0,2019-03-17T21:15:24.046232,2,EyesOpen
7457.972461935576,16124.95078145871,-5279.191467665609,-4730.009106398715,35603.66905971397,-3403.4330729762405,7810.3477132734915,4593.775223943619,0.0,0.0,0.0,2019-03-17T21:15:24.052417,2,EyesOpen
7635.735885588633,16264.380963370915,-5098.410558511086,-4591.741215198185,35744.663863738046,-3780.7752228707345,7951.923662653407,4678.130707517947,0.0,0.0,0.0,2019-03-17T21:15:24.053142,2,EyesOpen
7757.910520781341,16391.00359571023,-4957.080478320179,-4447.058373338982,35876.159176368616,-3639.8027705911127,8092.31496957719,4827.686229668407,0.0,0.0,0.0,2019-03-17T21:15:24.061126,2,EyesOpen
7587.12084139834,16268.69485005079,-5122.4833872894515,-4569.747098654163,35757.00202667738,-3240.466504152597,7968.285139594691,4761.279196891689,0.0,0.0,0.0,2019-03-17T21:15:24.061893,2,EyesOpen
7449.277633342462,16132.840947251434,-5283.818278767858,-4727.662173230908,35609.36875455007,-3331.2369383855985,7814.63924820891,4603.989971159694,0.0,0.0,0.0,2019-03-17T21:15:24.067241,2,EyesOpen
7572.726317969123,16217.308189548039,-5160.771925541392,-4647.866445525461,35692.45018869045,-3756.7918010701896,7901.073444017583,4629.649773794386,0.0,0.0,0.0,2019-03-17T21:15:24.067996,2,EyesOpen
7737.6821920492885,16375.67029901389,-4981.399176287553,-4469.879504427851,35852.95806562401,-3720.425512841405,8069.851466399607,4795.052682763659,-0.012,0.992,0.28400000000000003,2019-03-17T21:15:24.074993,2,EyesOpen
7621.520176115057,16288.498495638192,-5100.623381212161,-4544.914310564317,35775.73278853092,-3299.7880339369817,7992.290913139691,4773.952635997848,0.0,0.0,0.0,2019-03-17T21:15:24.075683,2,EyesOpen
7474.557456321413,16155.8632440404,-5266.540380303905,-4698.73901590574,35638.046042686234,-3255.8892078267586,7841.416638066368,4638.232843665224,0.0,0.0,0.0,2019-03-17T21:15:24.082933,2,EyesOpen
7573.463925536147,16222.918477406321,-5180.039129261867,-4649.788695548617,35698.61927016011,-3670.4470122393386,7895.820784070585,4637.562291331565,0.0,0.0,0.0,2019-03-17T21:15:24.083380,2,EyesOpen
7728.137997166872,16361.8122174516,-5012.333990613698,-4494.086443672949,35841.268103273884,-3776.1260600240303,8045.823341110152,4767.738851039273,0.0,0.0,0.0,2019-03-17T21:15:24.089479,2,EyesOpen
7653.952557319708,16317.242839007717,-5068.90625583008,-4512.057246215016,35816.43531518404,-3361.322386422442,8026.869061812051,4800.104177010558,0.0,0.0,0.0,2019-03-17T21:15:24.089744,2,EyesOpen
7470.422383597182,16156.757313818613,-5265.08751691431,-4685.909114588394,35651.39003412605,-3221.936907999147,7858.158094663393,4655.019003751159,0.0,0.0,0.0,2019-03-17T21:15:24.097690,2,EyesOpen
7517.919840564709,16170.86126456991,-5233.0351153654,-4686.981998322249,35660.04015923025,-3613.315953411574,7860.348565620014,4608.2815060951125,0.0,0.0,0.0,2019-03-17T21:15:24.098184,2,EyesOpen
7713.207031870727,16338.052313095608,-5026.773217531827,-4500.36728386489,35829.600492668214,-3800.042426591209,8039.475445684844,4756.831199745083,0.0,0.0,0.0,2019-03-17T21:15:24.104865,2,EyesOpen
7680.908761132809,16337.359409017494,-5047.269767197343,-4478.976664421161,35838.25061777241,-3436.5583582590057,8048.103219044593,4819.371380731032,0.0,0.0,0.0,2019-03-17T21:15:24.112780,2,EyesOpen
7495.277523431483,16173.498770415637,-5250.201255107076,-4647.911149014371,35678.659162361524,-3199.2722391214656,7879.056975729106,4692.815803625083,-0.016,1.0,0.28600000000000003,2019-03-17T21:15:24.113651,2,EyesOpen
7505.335808436372,16159.551281875525,-5251.430601052118,-4681.282303486145,35660.286028419265,-3518.633963898893,7860.259158642192,4629.336849372012,0.0,0.0,0.0,2019-03-17T21:15:24.119460,2,EyesOpen
7671.543380206035,16300.926065555343,-5075.611779166673,-4537.158255238325,35799.202120208996,-3822.818854191167,8010.82050929314,4732.736019222262,0.0,0.0,0.0,2019-03-17T21:15:24.120126,2,EyesOpen
7704.065168388506,16352.871519669477,-5029.500130355374,-4464.783306692041,35856.28847554785,-3523.6854581457924,8073.763021679285,4834.190587304901,0.0,0.0,0.0,2019-03-17T21:15:24.127321,2,EyesOpen
7485.398052382237,16165.206273222719,-5258.426697066629,-4654.3037479285895,35673.31709543671,-3230.5199778699853,7885.024891498672,4693.2181350252795,0.0,0.0,0.0,2019-03-17T21:15:24.128279,2,EyesOpen
7445.723705974067,16111.986769674633,-5311.825014570358,-4724.890556918449,35613.77204820777,-3472.7905360210584,7823.267021568659,4597.843241434484,0.0,0.0,0.0,2019-03-17T21:15:24.135342,2,EyesOpen
7638.865129812376,16275.60153908748,-5109.273506316365,-4556.961900825728,35772.08945418471,-3810.033656362731,7988.871096238029,4712.015952112192,0.0,0.0,0.0,2019-03-17T21:15:24.135917,2,EyesOpen
7722.326543608492,16373.05514491262,-5007.997752189369,-4438.564710445966,35874.72866472348,-3591.411243845373,8097.120594635081,4844.494741498797,0.0,0.0,0.0,2019-03-17T21:15:24.142644,2,EyesOpen
7544.585471699891,16223.611381484436,-5195.059501535833,-4584.029863361105,35733.130363599106,-3218.7406085420384,7947.453313762345,4751.556188053631,0.0,0.0,0.0,2019-03-17T21:15:24.143339,2,EyesOpen
7440.42634253816,16114.065481908976,-5315.66951461667,-4715.212251569302,35616.923644175964,-3390.4467094477072,7820.495405256201,4607.432139805811,0.0,0.0,0.0,2019-03-17T21:15:24.150242,2,EyesOpen
7611.059559709974,16253.74153301019,-5141.705887521015,-4586.913238395839,35748.284846339804,-3782.295141493695,7951.655441719943,4681.081137786047,-0.02,1.008,0.28800000000000003,2019-03-17T21:15:24.151139,2,EyesOpen
7717.587973783967,16373.122200145985,-5014.077426681212,-4458.435411266734,35865.65385647462,-3687.4119862809166,8084.000120639816,4817.38207547451,0.0,0.0,0.0,2019-03-17T21:15:24.158248,2,EyesOpen
7561.148114341273,16248.444169574283,-5166.471620377496,-4572.339901010979,35757.96315168896,-3278.6879871711717,7975.5271047982105,4765.4142696159215,0.0,0.0,0.0,2019-03-17T21:15:24.158995,2,EyesOpen
7423.975458619054,16107.963455672678,-5328.074732789366,-4730.098513376536,35617.974176165364,-3335.930804721213,7821.568288990055,4616.4398928212995,0.0,0.0,0.0,2019-03-17T21:15:24.165300,2,EyesOpen
7558.242387562083,16208.702767932746,-5198.6134289042275,-4639.551596588087,35712.76792440032,-3743.7160305638354,7916.85377560303,4655.44368689581,0.0,0.0,0.0,2019-03-17T21:15:24.172365,2,EyesOpen
7712.424720814792,16352.960926647298,-5036.563281603251,-4477.635559753842,35859.41771977159,-3748.655766088458,8067.5045332317995,4801.780557844706,0.0,0.0,0.0,2019-03-17T21:15:24.173165,2,EyesOpen
7598.967265959653,16282.552931613081,-5144.522207322384,-4539.6616506173195,35794.75412306239,-3328.0182871840343,7994.503735840766,4789.665912349929,0.0,0.0,0.0,2019-03-17T21:15:24.179804,2,EyesOpen
7443.220310595073,16143.972115990176,-5311.802662825902,-4696.034454826648,35652.14999343753,-3262.9523590746358,7840.634327010433,4651.1298002159365,0.0,0.0,0.0,2019-03-17T21:15:24.180567,2,EyesOpen
7511.147261994751,16179.287872229563,-5249.0389643954,-4676.364919705978,35686.79519734326,-3689.6918642153582,7871.904417503407,4622.139587657402,0.0,0.0,0.0,2019-03-17T21:15:24.187895,2,EyesOpen
7684.887371645853,16334.18546130484,-5054.3329184452205,-4501.574278065476,35848.979455110966,-3804.1551475709857,8046.3150794881685,4772.477420863798,0.0,0.0,0.0,2019-03-17T21:15:24.188651,2,EyesOpen
7622.816577293465,16298.51207715417,-5105.920744648069,-4517.935755006762,35825.532475177344,-3405.19886078821,8022.39871292099,4803.5686974011305,-0.022,0.994,0.28800000000000003,2019-03-17T21:15:24.195767,2,EyesOpen
7413.7830631474335,16108.924580684255,-5334.042648558932,-4721.26957431669,35638.35896710861,-3269.4120132222192,7821.680047712332,4632.376686617933,0.0,0.0,0.0,2019-03-17T21:15:24.196495,2,EyesOpen
7460.43115382566,16130.181089661253,-5302.347874921307,-4723.974135395782,35648.97604572488,-3641.0321165361547,7830.061951883073,4587.67319770732,0.0,0.0,0.0,2019-03-17T21:15:24.202754,2,EyesOpen
7667.6094731819,16315.074719795552,-5081.020901324857,-4528.843406300951,35831.209818268995,-3840.074400910664,8026.198509478392,4742.593138527052,0.0,0.0,0.0,2019-03-17T21:15:24.203394,2,EyesOpen
7655.316013731482,16324.350693744505,-5079.970369335458,-4494.354664606412,35853.13687957965,-3483.83229778198,8052.998251080305,4814.09636903958,0.0,0.0,0.0,2019-03-17T21:15:24.210372,2,EyesOpen
7454.686755500646,16154.455084139716,-5291.976665494045,-4676.476678428255,35677.765092583315,-3232.598690104329,7869.691594802332,4675.470849927766,0.0,0.0,0.0,2019-03-17T21:15:24.211032,2,EyesOpen
7424.176624319151,16103.76132771508,-5333.617965414282,-4745.230644372778,35620.008184910796,-3562.46573477575,7806.190288804804,4577.212581302236,0.0,0.0,0.0,2019-03-17T21:15:24.219030,2,EyesOpen
7621.36371390387,16269.588919829002,-5120.91876517758,-4565.366156740923,35792.49659687241,-3850.020927193276,7986.568866559132,4709.445501499832,0.0,0.0,0.0,2019-03-17T21:15:24.219684,2,EyesOpen
7681.869886144386,16348.37881903396,-5041.413610150053,-4460.827047923452,35880.9200979376,-3544.9419671227897,8072.399565267511,4835.263471038756,0.0,0.0,0.0,2019-03-17T21:15:24.225165,2,EyesOpen
7504.397035169249,16202.958369607732,-5225.703743184059,-4606.649828749875,35736.59488398968,-3195.4053873306975,7917.010237814216,4737.631051257975,0.0,0.0,0.0,2019-03-17T21:15:24.231948,2,EyesOpen
7426.590612720324,16115.250124365108,-5318.105854762299,-4712.910021890405,35643.18694391095,-3442.392163561841,7817.992009877206,4611.634267763408,-0.02,1.004,0.28800000000000003,2019-03-17T21:15:24.232607,2,EyesOpen
7603.482318339625,16260.60351855797,-5133.055762416811,-4565.5449706965655,35782.88534675662,-3811.3524092855946,7970.095630895571,4707.344437521033,0.0,0.0,0.0,2019-03-17T21:15:24.240074,2,EyesOpen
7696.778499696076,16356.201929593317,-5026.996734976379,-4446.991318105616,35887.71502825201,-3618.5909651030265,8080.177972337959,4842.3713257755435,0.0,0.0,0.0,2019-03-17T21:15:24.240728,2,EyesOpen
7525.005343557042,16217.598762225958,-5206.593001674772,-4585.728595939708,35757.62787552212,-3228.038934235446,7940.859549148029,4764.028461459692,0.0,0.0,0.0,2019-03-17T21:15:24.248182,2,EyesOpen
7399.612057162769,16087.869237407356,-5353.063983090399,-4740.492074548254,35618.80119071021,-3389.843212347414,7794.410919476858,4607.901526439372,0.0,0.0,0.0,2019-03-17T21:15:24.248993,2,EyesOpen
7568.948873156175,16230.07103563202,-5181.313178695819,-4610.650791007375,35751.570552774734,-3784.7761851282344,7932.745865910753,4684.836230854539,0.0,0.0,0.0,2019-03-17T21:15:24.254676,2,EyesOpen
7695.8844299178645,16356.134874359952,-5035.512749613852,-4460.223550823159,35891.403066087136,-3699.0348933976766,8080.692062460431,4833.788255904706,0.0,0.0,0.0,2019-03-17T21:15:24.255360,2,EyesOpen
7544.674878677712,16233.289686833585,-5188.912771810624,-4569.948264354261,35781.11955894465,-3287.360464019831,7969.581540773099,4782.021615746215,0.0,0.0,0.0,2019-03-17T21:15:24.262748,2,EyesOpen
7399.522650184947,16090.32792929744,-5361.691756450147,-4735.172359367891,35627.831295470154,-3325.6042987828614,7808.447814994791,4625.738218514707,0.0,0.0,0.0,2019-03-17T21:15:24.263555,2,EyesOpen
7507.168651481707,16172.157665748318,-5257.532627288417,-4671.492239414721,35692.69605787946,-3760.3904319274943,7877.470001872779,4634.276584896635,0.0,0.0,0.0,2019-03-17T21:15:24.270664,2,EyesOpen
7653.75139161961,16321.75789138769,-5084.53012520434,-4507.765711279597,35841.15634455161,-3794.4768422218376,8040.660088140976,4779.4511651338535,0.0,0.0,0.0,2019-03-17T21:15:24.271379,2,EyesOpen
7567.8089341889545,16271.8911495079,-5162.314195908809,-4547.127133265392,35799.29152718682,-3359.71306082166,7999.599933576576,4792.3034181956555,-0.018000000000000002,1.006,0.28400000000000003,2019-03-17T21:15:24.278764,2,EyesOpen
7389.710234369068,16108.768118473068,-5361.200018072131,-4731.8419494440495,35625.17143787997,-3289.1039000873448,7824.563422747067,4628.554538316076,0.0,0.0,0.0,2019-03-17T21:15:24.279453,2,EyesOpen
7467.449601584626,16154.566842861992,-5290.702616060093,-4699.163699050391,35663.68349357647,-3696.39738755195,7863.813086010586,4610.002590418171,0.0,0.0,0.0,2019-03-17T21:15:24.284952,2,EyesOpen
7676.036080841552,16353.117388858485,-5061.932511560025,-4484.765766235086,35859.037740115855,-3801.4505864918933,8068.376251265557,4790.224705961312,0.0,0.0,0.0,2019-03-17T21:15:24.285587,2,EyesOpen
7610.545469587501,16315.745272129212,-5121.052875644312,-4502.401292610323,35830.13693453514,-3418.7440179281257,8036.21209099437,4813.3140579836445,0.0,0.0,0.0,2019-03-17T21:15:24.292337,2,EyesOpen
7410.899688112699,16133.220926907174,-5343.095105063332,-4691.988789080237,35646.9643887239,-3248.557835645418,7845.998745679706,4653.879064783939,0.0,0.0,0.0,2019-03-17T21:15:24.300224,2,EyesOpen
7418.678095183146,16113.32787434195,-5346.649032431726,-4726.164606352402,35624.76910647978,-3632.516101898683,7822.752931446187,4578.397223758367,0.0,0.0,0.0,2019-03-17T21:15:24.300981,2,EyesOpen
7629.7009145857,16300.210809732773,-5119.197680854521,-4526.384714410868,35809.394515680615,-3845.0364881797423,8018.2636401967575,4734.74767622324,0.0,0.0,0.0,2019-03-17T21:15:24.307501,2,EyesOpen
7650.353926462403,16337.940554373332,-5090.699206674005,-4466.236170081636,35859.19420232704,-3485.732196060681,8068.510361732288,4833.05064833768,0.0,0.0,0.0,2019-03-17T21:15:24.308171,2,EyesOpen
7440.694563471623,16146.09553171343,-5326.353648466307,-4669.6817481138405,35669.83022330168,-3233.0457249934348,7868.663414557388,4676.744899361718,0.0,0.0,0.0,2019-03-17T21:15:24.315090,2,EyesOpen
7426.389447020227,16107.114089383376,-5373.381718800273,-4746.303528106633,35615.537836019736,-3544.584339211505,7801.921105613841,4574.128040567403,-0.012,1.002,0.28600000000000003,2019-03-17T21:15:24.315782,2,EyesOpen
7619.441463880714,16271.17589368533,-5171.9030942801355,-4584.365139527934,35774.90577398608,-3860.4144883649933,7969.760354728742,4694.246315270223,0.0,0.0,0.0,2019-03-17T21:15:24.322783,2,EyesOpen
7662.3121097459925,16345.115464343486,-5083.479593214941,-4472.271141084569,35870.39242629915,-3569.5959412569932,8072.846600156618,4833.922366371437,0.0,0.0,0.0,2019-03-17T21:15:24.323512,2,EyesOpen
7453.591520022335,16173.945805304744,-5288.758014292481,-4636.377648875434,35712.94673835597,-3224.1497307002223,7906.996656298239,4725.516405763198,0.0,0.0,0.0,2019-03-17T21:15:24.329976,2,EyesOpen
7373.192295216596,16085.723469939647,-5381.9871404155665,-4744.381278083477,35616.76718196478,-3449.4329630652624,7808.984256861718,4600.167822857836,0.0,0.0,0.0,2019-03-17T21:15:24.330718,2,EyesOpen
7535.2871460064825,16219.16338433783,-5219.065275080833,-4622.340753357501,35736.57253224523,-3848.657470781502,7942.848854404552,4668.362995190978,0.0,0.0,0.0,2019-03-17T21:15:24.337655,2,EyesOpen
7650.46568518468,16342.545013731125,-5091.258000285387,-4481.278894100058,35856.735510436956,-3671.3187302730958,8073.628911212553,4812.911726583448,0.0,0.0,0.0,2019-03-17T21:15:24.338327,2,EyesOpen
7502.206564212628,16226.315942563528,-5244.881539926713,-4589.416633774833,35745.714395727446,-3249.4072019347195,7958.629185989998,4757.591159056564,0.0,0.0,0.0,2019-03-17T21:15:24.345675,2,EyesOpen
7377.774402829934,16102.174353858753,-5386.323378839896,-4733.227757600279,35611.067487128676,-3370.799526071492,7817.0979400989945,4606.649828749875,0.0,0.0,0.0,2019-03-17T21:15:24.346313,2,EyesOpen
7528.134587780784,16221.666779716825,-5235.382048533207,-4623.838320236006,35723.02737510531,-3791.146432297997,7932.052961832638,4656.896550285405,0.0,0.0,0.0,2019-03-17T21:15:24.352587,2,EyesOpen
7641.457932169192,16327.904621112899,-5108.20062258251,-4497.5733158079765,35838.13885905014,-3759.876341805022,8052.797085380207,4777.6853773218845,-0.012,0.998,0.28200000000000003,2019-03-17T21:15:24.359461,2,EyesOpen
7511.728407350589,16229.914573420832,-5238.9359759016015,-4585.2145058172355,35752.486974297404,-3329.1135226623446,7962.786610458686,4748.873978718994,0.0,0.0,0.0,2019-03-17T21:15:24.360110,2,EyesOpen
7386.536286656415,16111.942066185722,-5382.411823560217,-4727.6174697419965,35626.154914636005,-3309.108711374845,7830.1290071164385,4623.033657435615,0.0,0.0,0.0,2019-03-17T21:15:24.367186,2,EyesOpen
7491.72359606309,16182.30535773103,-5281.247828155498,-4668.698271357807,35689.65622063354,-3739.69271656188,7894.256161958714,4631.683782539819,0.0,0.0,0.0,2019-03-17T21:15:24.368021,2,EyesOpen
7675.030252341063,16354.547900503625,-5079.992721079912,-4476.897952186818,35864.24569657394,-3781.043443804198,8079.596826982121,4806.183851502401,0.0,0.0,0.0,2019-03-17T21:15:24.375188,2,EyesOpen
7572.569855757935,16288.073812493541,-5172.171315213599,-4526.965859766706,35808.634556369136,-3363.4234504012406,8023.292782699202,4808.061398036647,0.0,0.0,0.0,2019-03-17T21:15:24.376013,2,EyesOpen
7379.8531150642775,16115.697159254214,-5384.445832305651,-4718.609716726508,35629.41826932648,-3274.7317284025826,7830.844262939008,4639.305727399079,0.0,0.0,0.0,2019-03-17T21:15:24.383026,2,EyesOpen
7437.4982640145145,16146.38610439135,-5341.441075973639,-4705.533946220154,35649.914818992,-3691.7035212163355,7847.026925924651,4603.252363592668,0.0,0.0,0.0,2019-03-17T21:15:24.383693,2,EyesOpen
7625.923469772753,16307.385719702927,-5139.336602608753,-4519.165100951803,35821.33034721975,-3850.8702934825774,8026.578489134132,4757.121772423002,0.0,0.0,0.0,2019-03-17T21:15:24.389968,2,EyesOpen
7591.278265867027,16298.646187620901,-5160.704870308026,-4507.832766512963,35829.98047232395,-3454.1715328897876,8035.899166571995,4814.677514395418,0.0,0.0,0.0,2019-03-17T21:15:24.390626,2,EyesOpen
7394.359397215771,16120.703950012203,-5373.962864156111,-4696.973228093771,35654.832202772166,-3249.809533334915,7847.585719536033,4664.54084688912,-0.016,1.0,0.28600000000000003,2019-03-17T21:15:24.397794,2,EyesOpen
7394.672321638146,16107.09173763892,-5375.907465923723,-4733.808902956117,35632.0110716833,-3614.500595867705,7818.841376166508,4593.059968121048,0.0,0.0,0.0,2019-03-17T21:15:24.398460,2,EyesOpen
7607.058597452474,16297.595655631503,-5141.6164805431945,-4533.984307525672,35822.269120486875,-3850.2444446378286,8017.704846585375,4751.287967120167,0.0,0.0,0.0,2019-03-17T21:15:24.405871,2,EyesOpen
7640.474455413158,16338.365237517983,-5097.225916054955,-4464.872713669863,35882.171795627095,-3503.1665567358204,8083.307216561701,4856.3411660601105,0.0,0.0,0.0,2019-03-17T21:15:24.406513,2,EyesOpen
7409.402121234193,16137.043075209032,-5339.630584672759,-4676.364919705978,35684.895299064556,-3238.745419829538,7871.122106447471,4694.559239692598,0.0,0.0,0.0,2019-03-17T21:15:24.412935,2,EyesOpen
7359.870655521233,16076.22397854614,-5407.803405261446,-4769.6387493179745,35607.75942894929,-3542.997365355178,7786.408994961857,4577.257284791146,0.0,0.0,0.0,2019-03-17T21:15:24.419269,2,EyesOpen
7553.325003781915,16239.659934003346,-5207.867051108725,-4605.398131060378,35765.071006425744,-3874.496087371837,7951.9907178867725,4691.07236755757,0.0,0.0,0.0,2019-03-17T21:15:24.419910,2,EyesOpen
7623.084798226929,16326.742330401223,-5121.5446140223285,-4499.674379786776,35855.57321972528,-3618.1662819583753,8050.673669656953,4816.420950462932,0.0,0.0,0.0,2019-03-17T21:15:24.427618,2,EyesOpen
7432.4467697676155,16164.53572088906,-5321.682133875148,-4663.043280010615,35697.83695910418,-3259.8454665953477,7888.0647287445945,4708.149100321424,0.0,0.0,0.0,2019-03-17T21:15:24.428466,2,EyesOpen
7352.226358917518,16075.531074468026,-5421.013286234533,-4776.701900565851,35597.4552747554,-3453.9703671896896,7780.642244892389,4581.079433093004,0.0,0.0,0.0,2019-03-17T21:15:24.435526,2,EyesOpen
7524.848881345854,16221.9797041392,-5237.371353789729,-4635.997669219693,35734.9855583889,-3843.9636044458875,7923.559298939622,4666.887780056927,-0.016,0.996,0.29,2019-03-17T21:15:24.436169,2,EyesOpen
7667.1847900372495,16354.056162125607,-5080.953846091491,-4475.579199263954,35879.42253105909,-3677.2195908092967,8074.634739713042,4830.994287847792,0.0,0.0,0.0,2019-03-17T21:15:24.442572,2,EyesOpen
7478.62547381228,16199.292683517062,-5266.540380303905,-4620.709076012263,35739.67942472451,-3284.8347168963815,7923.201671028337,4741.900234448938,0.0,0.0,0.0,2019-03-17T21:15:24.443253,2,EyesOpen
7338.904719222155,16069.093772064898,-5418.867518766823,-4775.249037176256,35597.87995790005,-3389.1056047803886,7769.756945342654,4587.67319770732,0.0,0.0,0.0,2019-03-17T21:15:24.451502,2,EyesOpen
7473.350462120827,16172.090610514953,-5277.80565950938,-4679.672977885363,35695.19945325845,-3818.147339600008,7868.663414557388,4626.498177826188,0.0,0.0,0.0,2019-03-17T21:15:24.452164,2,EyesOpen
7620.357885403381,16318.069853552564,-5112.760378451393,-4512.012542726105,35846.744280665436,-3779.434118203416,8030.490044413811,4785.307322181145,0.0,0.0,0.0,2019-03-17T21:15:24.459582,2,EyesOpen
7515.259982974528,16243.146806138375,-5224.809673405847,-4579.246590047668,35780.0466752108,-3335.930804721213,7956.751639455752,4777.819487788616,0.0,0.0,0.0,2019-03-17T21:15:24.460241,2,EyesOpen
7345.699649536568,16080.649623948291,-5416.006495476544,-4758.507580579231,35614.71082147489,-3325.805464482959,7782.072756537528,4615.545823043087,0.0,0.0,0.0,2019-03-17T21:15:24.465572,2,EyesOpen
7432.267955811973,16140.708761299702,-5335.897843348724,-4713.6476294574295,35660.48719411936,-3762.9608825398545,7827.759722204176,4607.208622361258,0.0,0.0,0.0,2019-03-17T21:15:24.466209,2,EyesOpen
7640.742676346622,16326.18353678984,-5117.163672109088,-4503.876507744373,35852.55573422381,-3813.9675633868655,8031.831149081129,4795.499717652764,0.0,0.0,0.0,2019-03-17T21:15:24.471927,2,EyesOpen
7545.546596711469,16264.202149415274,-5208.872879609213,-4554.816133358018,35799.87267254265,-3408.9092503677907,7974.074241408616,4795.544421141675,-0.016,0.992,0.29,2019-03-17T21:15:24.479685,2,EyesOpen
7345.006745458454,16081.923673382244,-5427.405885148751,-4749.388068841466,35616.27544358676,-3297.329342046898,7776.685986123799,4627.548709815587,0.0,0.0,0.0,2019-03-17T21:15:24.480337,2,EyesOpen
7391.699539625591,16102.95666491469,-5383.328245082885,-4742.8166559716055,35631.42992632746,-3702.9240969329,7792.01928282014,4591.584752986998,0.0,0.0,0.0,2019-03-17T21:15:24.487767,2,EyesOpen
7597.8049752479765,16287.291501437605,-5163.409431387118,-4546.054249531538,35814.155437249596,-3878.3182356736943,7987.798212504174,4753.634900287974,0.0,0.0,0.0,2019-03-17T21:15:24.488668,2,EyesOpen
7563.427992275714,16276.428553632326,-5191.282056722886,-4538.588766883465,35814.42365818306,-3505.222917225709,7987.082956681605,4804.909802068449,0.0,0.0,0.0,2019-03-17T21:15:24.494740,2,EyesOpen
7369.8171818038445,16103.962493415178,-5408.8762889953005,-4725.002315640726,35635.185019395954,-3276.229295281088,7796.333169500014,4657.544750874609,0.0,0.0,0.0,2019-03-17T21:15:24.495442,2,EyesOpen
7403.255391508984,16116.211249376685,-5392.939495198667,-4739.575653025586,35625.52906579126,-3596.306275881085,7784.956131572263,4605.107558382459,0.0,0.0,0.0,2019-03-17T21:15:24.502353,2,EyesOpen
7597.559106058969,16285.011623503164,-5185.69412060906,-4564.136810795881,35786.55103284729,-3873.9596455049095,7954.3376510545795,4733.183054111369,0.0,0.0,0.0,2019-03-17T21:15:24.503098,2,EyesOpen
7622.07896972644,16326.362350745483,-5150.110143436211,-4499.719083275686,35835.56840843778,-3561.9963481421887,8004.91964875694,4826.747456401284,0.0,0.0,0.0,2019-03-17T21:15:24.510435,2,EyesOpen
7418.745150416512,16161.942918532244,-5359.098954093332,-4673.168620248869,35671.73012158038,-3246.970861789091,7830.531338516634,4705.556297964608,0.0,0.0,0.0,2019-03-17T21:15:24.511138,2,EyesOpen
7366.509123624459,16088.785658930025,-5427.271774682018,-4762.4861910922755,35599.176359078454,-3515.1247400194097,7752.456695134247,4598.200869345769,-0.02,0.996,0.294,2019-03-17T21:15:24.518418,2,EyesOpen
7542.842035632377,16237.491814791181,-5239.628879979716,-4609.868479951439,35746.25083759437,-3867.969377990887,7908.13659526546,4699.230754283757,0.0,0.0,0.0,2019-03-17T21:15:24.519078,2,EyesOpen
7607.259763152571,16320.975580331753,-5154.446381860541,-4507.3186763904905,35836.238960771436,-3648.6540613954144,8001.231610921814,4818.1867382749015,0.0,0.0,0.0,2019-03-17T21:15:24.525552,2,EyesOpen
7426.210633064585,16166.815598823501,-5342.715125407592,-4656.382460162933,35695.73589512538,-3273.7706033910044,7847.876292213952,4723.728266206774,0.0,0.0,0.0,2019-03-17T21:15:24.526336,2,EyesOpen
7335.820178487323,16066.836245874912,-5449.556463903959,-4774.623188331508,35593.94605087591,-3446.840160708447,7742.309003151537,4596.032750133604,0.0,0.0,0.0,2019-03-17T21:15:24.532018,2,EyesOpen
7504.329979935883,16202.399575996349,-5274.721118774548,-4642.3232129005455,35722.20036056046,-3849.9091684709992,7883.504972875711,4672.252198726202,0.0,0.0,0.0,2019-03-17T21:15:24.532713,2,EyesOpen
7613.6523620667895,16316.684045396334,-5152.747649281937,-4515.253545672124,35836.14955379362,-3743.894844519478,8003.667951067442,4801.467633422331,0.0,0.0,0.0,2019-03-17T21:15:24.540333,2,EyesOpen
7465.236778883551,16202.578389951992,-5305.320656933864,-4625.380590603422,35731.92336939852,-3322.2738888590206,7885.762499065698,4746.772914740195,0.0,0.0,0.0,2019-03-17T21:15:24.548164,2,EyesOpen
7322.297373091862,16062.678821406225,-5458.675975641725,-4779.629979089496,35589.56510896267,-3393.352436226897,7736.944584482263,4594.758700699652,0.0,0.0,0.0,2019-03-17T21:15:24.548811,2,EyesOpen
7446.573072263369,16156.712610329701,-5332.478026447061,-4695.475661215265,35675.97695302689,-3825.925746670455,7829.614916993966,4626.319363870545,0.0,0.0,0.0,2019-03-17T21:15:24.554586,2,EyesOpen
7637.993411778619,16330.162147302884,-5130.440608315541,-4498.17681290827,35855.08148134726,-3785.625551417536,8016.743721573797,4812.263525994244,-0.018000000000000002,0.998,0.28800000000000003,2019-03-17T21:15:24.555161,2,EyesOpen
7490.717767562601,16229.869869931921,-5264.551075047383,-4586.555610484554,35766.63562853761,-3372.7664795835594,7917.099644792038,4777.573618599608,0.0,0.0,0.0,2019-03-17T21:15:24.562727,2,EyesOpen
7324.376085326206,16082.661280949269,-5454.429144195216,-4759.401650357443,35603.04321086922,-3332.265118630543,7743.337183396481,4620.016171934149,0.0,0.0,0.0,2019-03-17T21:15:24.563559,2,EyesOpen
7420.734455673034,16139.255897910107,-5374.387547300762,-4716.687466703352,35652.44056611545,-3757.5070568927595,7789.426480463324,4611.433102063311,0.0,0.0,0.0,2019-03-17T21:15:24.570769,2,EyesOpen
7608.287943397516,16315.074719795552,-5171.277245435387,-4525.311830677013,35823.34200422073,-3854.71479352889,7970.095630895571,4771.113964452024,0.0,0.0,0.0,2019-03-17T21:15:24.571424,2,EyesOpen
7531.666163404723,16267.331393639017,-5237.326650300819,-4556.112534536425,35785.16522469106,-3448.9188729427906,7931.002429843239,4787.4307379043985,0.0,0.0,0.0,2019-03-17T21:15:24.578701,2,EyesOpen
7336.088399420786,16088.383327529828,-5457.9383680747,-4752.584368298575,35597.4552747554,-3312.41676955423,7734.061209447528,4619.882061467417,0.0,0.0,0.0,2019-03-17T21:15:24.579385,2,EyesOpen
7379.249617963984,16106.957627172189,-5424.1872339471865,-4752.383202598477,35606.82065568217,-3696.2856288296734,7741.81726477352,4577.614912702431,0.0,0.0,0.0,2019-03-17T21:15:24.585440,2,EyesOpen
7591.747652500589,16300.188457988317,-5195.998274802956,-4551.776296112096,35796.966945763466,-3883.7497095763338,7934.936336867373,4742.704897249329,0.0,0.0,0.0,2019-03-17T21:15:24.586077,2,EyesOpen
7570.111163867851,16307.743347614212,-5204.402530718152,-4531.011525513116,35809.79684708081,-3520.086827288488,7944.4134765164235,4803.14401425648,0.0,0.0,0.0,2019-03-17T21:15:24.593428,2,EyesOpen
7385.306940711373,16151.616412593892,-5409.524489584504,-4706.070388087081,35644.63980730055,-3263.131173030278,7772.8414860774865,4670.039376025125,-0.018000000000000002,1.002,0.28600000000000003,2019-03-17T21:15:24.594062,2,EyesOpen
7368.900760281177,16109.215153362175,-5437.799446320468,-4764.900179493449,35602.819693424666,-3602.184784672831,7725.276973876593,4579.961845870238,0.0,0.0,0.0,2019-03-17T21:15:24.600467,2,EyesOpen
7557.7730009285215,16268.22546341723,-5234.912661899646,-4595.876287922417,35764.713378514454,-3904.5368319197696,7896.468984659789,4701.465928729288,0.0,0.0,0.0,2019-03-17T21:15:24.606839,2,EyesOpen
7587.791393731999,16314.56062967308,-5189.024530532901,-4527.681115589276,35822.8055623538,-3616.3334389130405,7957.824523189608,4796.885525808993,0.0,0.0,0.0,2019-03-17T21:15:24.607547,2,EyesOpen
7384.03289127742,16135.903136241812,-5419.068684466921,-4721.180167338868,35639.72242352038,-3312.0814933874008,7759.497494637668,4650.839227538017,0.0,0.0,0.0,2019-03-17T21:15:24.615038,2,EyesOpen
7345.476132092015,16078.213283802663,-5478.166696806753,-4796.5278978977085,35572.57778317664,-3547.870045646435,7687.860153658409,4550.904578078339,0.0,0.0,0.0,2019-03-17T21:15:24.615680,2,EyesOpen
7508.085073004374,16216.145898836363,-5272.7541652624805,-4626.565233059554,35739.29944506877,-3891.706930602423,7866.160019178394,4674.107393515992,0.0,0.0,0.0,2019-03-17T21:15:24.622916,2,EyesOpen
7559.270567807027,16287.358556670972,-5172.998329758445,-4510.55967933651,35841.7598416519,-3685.1544600909306,7975.951787942861,4810.944773071382,0.0,0.0,0.0,2019-03-17T21:15:24.623679,2,EyesOpen
7349.655908305158,16109.461022551182,-5378.679082236181,-4676.700195872807,35685.56585139821,-3314.741350977582,7805.966771360251,4708.238507299246,0.0,0.0,0.0,2019-03-17T21:15:24.629982,2,EyesOpen
7232.644526081625,15986.191151880164,-5502.798319196501,-4811.123587027024,35568.28624824122,-3463.872189983391,7682.674548944778,4574.843296389973,0.0,0.0,0.0,2019-03-17T21:15:24.630795,2,EyesOpen
7383.228228477029,16096.005272389088,-5337.350706738318,-4686.1773355218575,35697.25581374834,-3866.561218090203,7817.2767540546365,4651.196855449302,-0.016,1.006,0.276,2019-03-17T21:15:24.637593,2,EyesOpen
7519.886794076776,16235.055474645553,-5179.368576928208,-4529.4469034012445,35842.65391143011,-3758.6469958599805,7966.608758760543,4811.257697493756,0.0,0.0,0.0,2019-03-17T21:15:24.638354,2,EyesOpen
7365.659757335157,16123.72143551367,-5320.743360608025,-4632.555500573576,35744.999139904874,-3325.783112738504,7860.84030399803,4768.498810350753,0.0,0.0,0.0,2019-03-17T21:15:24.645861,2,EyesOpen
7184.23064759143,15948.68492468416,-5496.4504237711935,-4807.2120317473455,35585.31827751616,-3384.5011454225955,7693.135165349861,4604.213488604247,0.0,0.0,0.0,2019-03-17T21:15:24.646565,2,EyesOpen
7265.166314264097,15995.26596012902,-5403.064835436921,-4757.099420678547,35638.78365025326,-3842.980127689854,7752.523750367613,4605.24166884919,0.0,0.0,0.0,2019-03-17T21:15:24.653637,2,EyesOpen
7433.832577923844,16161.585290620958,-5210.392798232174,-4571.579941699498,35807.24874821291,-3844.6565085240018,7933.61758394451,4778.981778500292,0.0,0.0,0.0,2019-03-17T21:15:24.654337,2,EyesOpen
7319.190480612574,16075.016984345555,-5321.011581541488,-4639.708058799274,35735.857276422656,-3420.9791923736566,7857.7781150076535,4764.162571926424,0.0,0.0,0.0,2019-03-17T21:15:24.659986,2,EyesOpen
7149.60779543016,15914.687921367637,-5501.479566273638,-4805.8038718466605,35578.72451290185,-3345.1844269257103,7688.798926925532,4616.551651543576,0.0,0.0,0.0,2019-03-17T21:15:24.667186,2,EyesOpen
7205.844784479712,15948.662572939704,-5444.214396979141,-4785.106156481047,35607.647670227016,-3778.361234469561,7720.7172180077105,4588.611970974443,0.0,0.0,0.0,2019-03-17T21:15:24.668059,2,EyesOpen
7381.350681942783,16110.779775474046,-5249.642461495693,-4601.218354847236,35770.681294284026,-3907.4425586989596,7895.485507903756,4743.531911794175,0.0,0.0,0.0,2019-03-17T21:15:24.676684,2,EyesOpen
7310.9426869085655,16054.162806768752,-5302.57139236586,-4616.037561421104,35745.31206432725,-3505.535841648083,7867.724641290265,4774.08674646458,-0.018000000000000002,1.008,0.27,2019-03-17T21:15:24.677336,2,EyesOpen
7099.137556450076,15866.56461555536,-5535.655383545803,-4821.114816798547,35548.482602653814,-3351.3088049064645,7659.205217266705,4598.893773423883,0.0,0.0,0.0,2019-03-17T21:15:24.683089,2,EyesOpen
7117.086007247688,15862.876577720235,-5520.143272893819,-4835.822264650138,35539.92188452743,-3736.362306638039,7652.7455631191215,4540.376906439889,0.0,0.0,0.0,2019-03-17T21:15:24.683778,2,EyesOpen
7315.5247945219035,16035.208527470653,-5290.568505593361,-4628.442779593799,35730.11287809764,-3941.3501550376604,7859.1862749083375,4707.590306710042,0.0,0.0,0.0,2019-03-17T21:15:24.690448,2,EyesOpen
7330.8804429627,16072.647699433292,-5270.027252438933,-4576.899656879861,35770.1448524171,-3572.501668036183,7904.537964408156,4798.181926987401,0.0,0.0,0.0,2019-03-17T21:15:24.691305,2,EyesOpen
7129.714742864936,15899.466383393574,-5487.442670755705,-4763.871999248505,35588.492225228816,-3309.7569119640484,7715.688075505266,4656.248349696201,0.0,0.0,0.0,2019-03-17T21:15:24.698342,2,EyesOpen
7126.36198119664,15877.516970338462,-5510.956705922688,-4812.464691694342,35547.432070664414,-3611.684276066336,7674.113830818395,4577.391395257878,0.0,0.0,0.0,2019-03-17T21:15:24.698979,2,EyesOpen
7332.445065074571,16061.583585927916,-5300.023293497956,-4634.120122685447,35714.42195349002,-3916.450311714448,7851.139646904427,4707.679713687863,0.0,0.0,0.0,2019-03-17T21:15:24.707540,2,EyesOpen
7368.766649814445,16115.495993554116,-5255.543322031895,-4566.61785443042,35765.85331748168,-3657.4830004552605,7907.823670843086,4799.075996765613,0.0,0.0,0.0,2019-03-17T21:15:24.708237,2,EyesOpen
7192.523144784349,15965.739305703559,-5449.17648424822,-4723.460045273309,35612.22977784035,-3305.0853973728895,7746.801703787054,4694.268667014679,0.0,0.0,0.0,2019-03-17T21:15:24.713468,2,EyesOpen
7151.015955330844,15910.15051724321,-5521.931412450244,-4811.704732382862,35532.56816060164,-3523.1043127899547,7659.294624244527,4587.360273284945,-0.018000000000000002,1.012,0.27,2019-03-17T21:15:24.714136,2,EyesOpen
7333.585004041792,16053.22403350163,-5338.557700938904,-4665.949006789805,35674.70290359294,-3902.7710441078,7810.1688993178495,4679.918847074371,0.0,0.0,0.0,2019-03-17T21:15:24.719663,2,EyesOpen
7413.246621280507,16152.890462027844,-5234.778551432914,-4547.618871643409,35777.96796297645,-3727.4439606003716,7920.18418552687,4806.161499757945,0.0,0.0,0.0,2019-03-17T21:15:24.727402,2,EyesOpen
7252.157598991108,16027.474823889117,-5410.30680064044,-4674.979111549748,35648.08197594666,-3323.8608627153476,7782.20686700426,4728.779760453673,0.0,0.0,0.0,2019-03-17T21:15:24.728175,2,EyesOpen
7145.025687816821,15915.067901023378,-5538.449351602716,-4805.602706146563,35525.79558203168,-3448.5612450315057,7651.247996240616,4591.428290775811,0.0,0.0,0.0,2019-03-17T21:15:24.735501,2,EyesOpen
7299.655055958636,16047.211414243153,-5378.343806069352,-4686.73612913324,35643.790441011246,-3859.6768807979684,7772.953244799763,4654.393154906411,0.0,0.0,0.0,2019-03-17T21:15:24.736147,2,EyesOpen
7429.1610633326845,16172.984680293166,-5237.75133344547,-4542.880301818884,35774.77166351934,-3799.2824672797287,7907.711912120809,4793.622171118519,0.0,0.0,0.0,2019-03-17T21:15:24.742107,2,EyesOpen
7286.892209874655,16064.243443518097,-5382.724747982592,-4644.223111179246,35676.356932682625,-3376.879200563336,7798.2554195231705,4746.348231595544,0.0,0.0,0.0,2019-03-17T21:15:24.742927,2,EyesOpen
7149.563091941249,15930.065921552889,-5543.120866193875,-4801.199412488868,35528.567198344135,-3392.0560350484893,7645.458894426692,4598.513793768143,0.0,0.0,0.0,2019-03-17T21:15:24.751291,2,EyesOpen
7277.616235925703,16019.36114065184,-5428.45641713815,-4727.1480831084355,35604.13844634753,-3817.297973310706,7728.830901244986,4620.10557891197,0.0,0.0,0.0,2019-03-17T21:15:24.751971,2,EyesOpen
7448.361211819793,16182.886503086866,-5237.103132856266,-4543.260281474624,35772.60354430718,-3850.8032382492115,7906.9072493204185,4783.452127391354,-0.018000000000000002,1.01,0.268,2019-03-17T21:15:24.758116,2,EyesOpen
7328.086474905786,16094.239484577118,-5347.878378376768,-4614.674105009331,35701.56970042821,-3446.0354979080557,7831.224242594749,4764.408441115433,0.0,0.0,0.0,2019-03-17T21:15:24.758756,2,EyesOpen
7134.095684778176,15907.311845697386,-5565.025575760076,-4815.124549284524,35510.4846370798,-3376.4992209075954,7631.533757631035,4584.789822672585,0.0,0.0,0.0,2019-03-17T21:15:24.765408,2,EyesOpen
7217.154767174097,15955.032820109467,-5493.075310358442,-4779.048833733658,35549.84605906559,-3775.9919495572985,7673.532685462557,4573.323377767012,0.0,0.0,0.0,2019-03-17T21:15:24.766164,2,EyesOpen
7427.775255176456,16145.089703212941,-5274.765822263458,-4578.017244102627,35735.007910133354,-3909.1189395331076,7866.070612200572,4744.336574594567,0.0,0.0,0.0,2019-03-17T21:15:24.772682,2,EyesOpen
7387.452708179082,16133.556203074004,-5307.399369168207,-4572.339901010979,35731.69985195397,-3509.425045183307,7855.78880975113,4790.515278639231,0.0,0.0,0.0,2019-03-17T21:15:24.773319,2,EyesOpen
7164.918740382045,15934.82684312187,-5545.870130761878,-4782.066319235125,35530.64591057848,-3340.3340983789085,7640.340344946426,4612.170709630336,0.0,0.0,0.0,2019-03-17T21:15:24.779803,2,EyesOpen
7200.525069299349,15947.723799672582,-5523.496034562116,-4792.370473429021,35527.27079716573,-3695.4139107959168,7633.321897187459,4563.443906717766,0.0,0.0,0.0,2019-03-17T21:15:24.780446,2,EyesOpen
7405.13293804323,16131.835118750945,-5305.2088982115865,-4603.811157204051,35702.75434288434,-3931.850663644155,7815.198041820293,4712.708856190307,0.0,0.0,0.0,2019-03-17T21:15:24.787986,2,EyesOpen
7406.317580499361,16158.634860352859,-5285.829935768836,-4553.072697290504,35742.36163405915,-3588.594924044004,7862.1814086653485,4799.90301131046,0.0,0.0,0.0,2019-03-17T21:15:24.794960,2,EyesOpen
7195.272409352352,15971.68486972867,-5509.257973344085,-4742.168455382402,35557.13272775802,-3315.255441100054,7670.738717405644,4654.884893284428,-0.012,1.008,0.264,2019-03-17T21:15:24.795791,2,EyesOpen
7172.652443963581,15930.267087252985,-5543.769066783079,-4802.562868900642,35505.880177722,-3607.057464964088,7614.859356267376,4568.405993986845,0.0,0.0,0.0,2019-03-17T21:15:24.802420,2,EyesOpen
7364.6539288346685,16096.742879956113,-5344.056230074911,-4638.29989889859,35659.168441196496,-3936.231605557395,7776.574227401523,4682.221076753268,0.0,0.0,0.0,2019-03-17T21:15:24.803183,2,EyesOpen
7423.997810363509,16167.441447668249,-5274.966987963556,-4549.474066433199,35732.68332871,-3686.9649513918107,7852.637213782932,4788.637732104985,0.0,0.0,0.0,2019-03-17T21:15:24.810347,2,EyesOpen
7260.137171761653,16031.654600102258,-5455.9490628181775,-4686.490259944232,35596.114170088076,-3311.455644542652,7705.495680033646,4702.382350251955,0.0,0.0,0.0,2019-03-17T21:15:24.811002,2,EyesOpen
7159.710783923958,15927.696636640625,-5572.133430496863,-4809.536613170697,35485.13775886747,-3533.4531704727615,7586.763213487055,4563.66742416232,0.0,0.0,0.0,2019-03-17T21:15:24.817352,2,EyesOpen
7340.804617500856,16070.077248820931,-5392.045425420454,-4667.178352734846,35623.45035355692,-3924.318125762716,7732.228366402193,4651.018041493659,0.0,0.0,0.0,2019-03-17T21:15:24.817995,2,EyesOpen
7452.116304888285,16185.278139743585,-5271.457764084073,-4537.001793027138,35740.43938403599,-3767.341824453095,7856.906396973896,4789.889429794483,0.0,0.0,0.0,2019-03-17T21:15:24.825114,2,EyesOpen
7261.813552595801,16042.674010118726,-5462.632234410315,-4685.730300632751,35599.13165558954,-3377.8179738304584,7702.299380576537,4698.5602019500975,0.0,0.0,0.0,2019-03-17T21:15:24.826021,2,EyesOpen
7161.342461269196,15947.835558394858,-5584.270427736095,-4808.575488159119,35488.6246310025,-3465.5932743064495,7580.124745383829,4574.798592901063,0.0,0.0,0.0,2019-03-17T21:15:24.833144,2,EyesOpen
7305.242992072463,16050.854748589367,-5436.12306548632,-4705.958629364804,35595.8012456657,-3883.392081665049,7691.749357193632,4624.620631291942,-0.016,1.006,0.26,2019-03-17T21:15:24.834011,2,EyesOpen
7453.502113044515,16187.602721166937,-5267.032118681922,-4539.035801772571,35745.82615444972,-3827.333906571139,7849.575024792555,4783.89916228046,0.0,0.0,0.0,2019-03-17T21:15:24.841157,2,EyesOpen
7339.508216322448,16095.37942354434,-5385.675178250692,-4616.685762010308,35669.00320875683,-3390.6255234033497,7761.956186527752,4759.424002101899,0.0,0.0,0.0,2019-03-17T21:15:24.842030,2,EyesOpen
7152.982908842911,15917.370130702273,-5599.223744776696,-4818.119683041535,35484.15428211144,-3416.195919060221,7561.0587073634515,4570.775278899107,0.0,0.0,0.0,2019-03-17T21:15:24.847307,2,EyesOpen
7260.651261884125,15999.333977619885,-5498.953819150188,-4754.908949721927,35552.43886142241,-3841.1919881334293,7635.9594030331855,4582.755813927151,0.0,0.0,0.0,2019-03-17T21:15:24.854521,2,EyesOpen
7459.268863113984,16191.290759002062,-5283.0806712008325,-4547.820037343507,35738.38302354611,-3877.6700350844903,7837.259213597681,4765.794249271661,0.0,0.0,0.0,2019-03-17T21:15:24.855252,2,EyesOpen
7358.261329920451,16120.18985988973,-5375.281617078975,-4598.2455728346795,35681.7213513519,-3465.436812095262,7775.277826223115,4764.22962715979,0.0,0.0,0.0,2019-03-17T21:15:24.862664,2,EyesOpen
7166.170438071542,15941.733532158558,-5590.394805716849,-4793.979799029804,35494.659602005435,-3366.776212069537,7580.9517599286755,4594.758700699652,0.0,0.0,0.0,2019-03-17T21:15:24.863626,2,EyesOpen
7238.008944750899,15989.141582148264,-5523.585441539936,-4767.269464405712,35531.160000700955,-3760.658652860958,7613.451196366692,4577.391395257878,0.0,0.0,0.0,2019-03-17T21:15:24.871249,2,EyesOpen
7449.612909509291,16181.321880974994,-5299.732720820037,-4569.85885737644,35716.36655525763,-3913.745750635356,7803.68689342581,4740.894405948449,0.0,0.0,0.0,2019-03-17T21:15:24.871935,2,EyesOpen
7398.069786795353,16159.685392342257,-5347.096067320832,-4585.19215407278,35696.0264678033,-3547.467714246239,7786.1631257728495,4771.918627252416,-0.018000000000000002,1.008,0.264,2019-03-17T21:15:24.877262,2,EyesOpen
7187.873981937645,15974.188265107665,-5574.681529364769,-4782.714519824329,35511.5351690692,-3340.937595479202,7588.841925721398,4614.674105009331,0.0,0.0,0.0,2019-03-17T21:15:24.878195,2,EyesOpen
7219.009961963888,15976.199922108643,-5555.727250066669,-4792.728101340306,35510.685802779895,-3676.6831489423694,7581.242332606595,4566.774316641608,0.0,0.0,0.0,2019-03-17T21:15:24.885294,2,EyesOpen
7418.968667861065,16151.52700561607,-5337.060134060399,-4609.3990933178775,35686.66108687653,-3943.16064633854,7766.672404607822,4706.182146809358,0.0,0.0,0.0,2019-03-17T21:15:24.885928,2,EyesOpen
7446.058982140897,16190.128468290386,-5301.789081309925,-4545.383697197878,35738.31596831274,-3616.914584268878,7820.294239556103,4800.238287477289,0.0,0.0,0.0,2019-03-17T21:15:24.893414,2,EyesOpen
7234.1644447045865,16008.297027146464,-5526.669982274769,-4734.680620989874,35557.579762647125,-3328.644136028783,7626.370504661859,4657.96943401926,0.0,0.0,0.0,2019-03-17T21:15:24.894240,2,EyesOpen
7194.825374463246,15958.989078878056,-5582.638750390858,-4814.655162650963,35488.95990716933,-3612.243069677719,7557.482428250602,4556.090182791971,0.0,0.0,0.0,2019-03-17T21:15:24.900547,2,EyesOpen
7401.221382763551,16132.19274666223,-5372.957035655622,-4640.020983221649,35652.28410390426,-3945.6416899730793,7732.787160013576,4681.014082552681,0.0,0.0,0.0,2019-03-17T21:15:24.901361,2,EyesOpen
7467.561360306902,16204.411232997327,-5288.758014292481,-4540.287499462068,35740.84171543619,-3708.2885156021734,7820.473053511746,4799.925363054916,0.0,0.0,0.0,2019-03-17T21:15:24.907054,2,EyesOpen
7253.208130980508,16019.450547629662,-5505.525232020049,-4718.699123704329,35570.34260873111,-3352.6722613182383,7637.8369495674315,4676.4319749393435,0.0,0.0,0.0,2019-03-17T21:15:24.915034,2,EyesOpen
7160.291929279796,15924.679151139158,-5618.178024074796,-4838.169197817945,35460.97552311129,-3541.768019410136,7525.027695301497,4543.059115774527,-0.02,1.008,0.264,2019-03-17T21:15:24.915803,2,EyesOpen
7337.8318354883,16075.464019234661,-5434.156111974253,-4693.240486769734,35601.52329224626,-3932.141236322074,7674.270293029582,4631.594375561997,0.0,0.0,0.0,2019-03-17T21:15:24.922900,2,EyesOpen
7465.482648072559,16205.282951031084,-5289.80854628188,-4543.506150663633,35730.895189153576,-3789.715920652857,7811.062969096061,4783.541534369175,0.0,0.0,0.0,2019-03-17T21:15:24.923632,2,EyesOpen
7298.5598204803255,16071.820684888446,-5465.60501642287,-4679.181239507347,35600.13748409003,-3388.5244594245505,7668.414135982292,4703.656399685908,0.0,0.0,0.0,2019-03-17T21:15:24.930872,2,EyesOpen
7166.3716037716395,15937.553755945417,-5620.055570609042,-4831.91070937046,35461.84724114505,-3471.941169731757,7519.886794076776,4553.318566479512,0.0,0.0,0.0,2019-03-17T21:15:24.931625,2,EyesOpen
7307.031131628887,16050.094789277888,-5468.063708312954,-4721.783664439162,35567.70510288538,-3884.6884828434568,7628.069237240463,4609.264982851146,0.0,0.0,0.0,2019-03-17T21:15:24.937353,2,EyesOpen
7473.90925573221,16217.621113970414,-5280.420813610651,-4538.097028505448,35733.465639765935,-3843.136589901041,7801.228201535726,4782.200429701857,0.0,0.0,0.0,2019-03-17T21:15:24.937877,2,EyesOpen
7334.747294753468,16117.597057532914,-5418.174614688709,-4635.081247697026,35638.604836297614,-3427.327087798964,7701.159441609317,4740.089743148058,0.0,0.0,0.0,2019-03-17T21:15:24.945680,2,EyesOpen
7162.124772325132,15941.554718202917,-5608.656180936835,-4819.192566775389,35469.156261581935,-3411.837328891436,7517.8527853313435,4570.887037621384,0.0,0.0,0.0,2019-03-17T21:15:24.946438,2,EyesOpen
7259.4666194279935,15996.092974673866,-5521.909060705789,-4772.745641797262,35522.196951174374,-3844.0306596792534,7579.990634917097,4570.551761454554,0.0,0.0,0.0,2019-03-17T21:15:24.952630,2,EyesOpen
7443.8908629287325,16165.496845900638,-5324.453750187606,-4588.254343063158,35691.13143576759,-3926.7321141638895,7765.085430751495,4731.774894210684,-0.022,1.006,0.266,2019-03-17T21:15:24.953266,2,EyesOpen
7360.563559599347,16120.502784312104,-5394.817041732913,-4622.363105101956,35655.01101672781,-3512.375475451407,7721.611287785922,4745.878844961982,0.0,0.0,0.0,2019-03-17T21:15:24.960393,2,EyesOpen
7187.292836581807,15970.522579016993,-5585.276256236584,-4790.448223405865,35496.3806863285,-3362.0152905005566,7549.0781723354075,4605.86751769394,0.0,0.0,0.0,2019-03-17T21:15:24.961078,2,EyesOpen
7219.389941619628,15977.49632328705,-5562.2539594476175,-4801.177060744412,35495.10663689454,-3771.275731477229,7544.965451355631,4551.2845577340795,0.0,0.0,0.0,2019-03-17T21:15:24.967469,2,EyesOpen
7417.292287026917,16147.369581147383,-5353.511017979506,-4616.663410265853,35661.67183657549,-3968.485172806403,7723.220613386705,4696.16856529338,0.0,0.0,0.0,2019-03-17T21:15:24.975305,2,EyesOpen
7389.821993091345,16146.877842769367,-5361.848218661335,-4594.356369299456,35675.239345459864,-3594.6522467913924,7737.481026349191,4757.65821428993,0.0,0.0,0.0,2019-03-17T21:15:24.976165,2,EyesOpen
7192.992531417911,15980.200884366142,-5568.400689172828,-4775.696072065362,35503.488541065286,-3357.0755549759338,7559.315271295938,4616.886927710406,0.0,0.0,0.0,2019-03-17T21:15:24.982161,2,EyesOpen
7186.935208670522,15940.638296680248,-5592.719387140201,-4832.089523326102,35456.79574689815,-3705.785120223179,7516.377570197293,4527.65876384482,0.0,0.0,0.0,2019-03-17T21:15:24.982802,2,EyesOpen
7398.114490284263,16126.47070008167,-5369.805439687424,-4642.770247789651,35633.28512111725,-3981.0245014458305,7706.188584111761,4668.899437057905,0.0,0.0,0.0,2019-03-17T21:15:24.990402,2,EyesOpen
7440.180473349152,16180.696032130247,-5318.664648373681,-4565.2543980186465,35700.83209286119,-3664.367337747495,7779.748175114176,4777.081880221592,0.0,0.0,0.0,2019-03-17T21:15:24.991104,2,EyesOpen
7221.155729431597,15987.487553058572,-5549.871093019377,-4757.345289867555,35519.24652090627,-3360.316557921953,7592.842887978899,4633.628384307431,-0.022,1.006,0.276,2019-03-17T21:15:24.997904,2,EyesOpen
7166.170438071542,15926.91432558469,-5620.323791542505,-4846.327584544133,35442.87061010249,-3622.793093060624,7513.96358179612,4523.076656231482,0.0,0.0,0.0,2019-03-17T21:15:24.998548,2,EyesOpen
7397.265123994962,16124.727264014158,-5383.931742183178,-4650.079268226536,35632.949844950424,-3939.897291648065,7716.582145283479,4667.848905068506,0.0,0.0,0.0,2019-03-17T21:15:25.006048,2,EyesOpen
7468.746002763034,16199.784421895078,-5293.965970750567,-4546.434229187278,35724.815514661736,-3725.4770070883046,7816.919126143352,4788.95065652736,0.0,0.0,0.0,2019-03-17T21:15:25.006688,2,EyesOpen
7255.86798857069,16021.864536030835,-5515.158833880286,-4727.930394164371,35553.02000677824,-3371.358319682875,7637.278155956049,4664.429088166844,0.0,0.0,0.0,2019-03-17T21:15:25.012499,2,EyesOpen
7162.303586280774,15920.946409815124,-5632.796064948567,-4851.669651468951,35440.903656590424,-3539.376382753418,7513.20362248464,4528.485778389666,0.0,0.0,0.0,2019-03-17T21:15:25.013371,2,EyesOpen
7339.8211407448225,16054.498082935583,-5456.038469795999,-4716.508652747709,35573.47185295485,-3941.1489893375624,7646.822350838465,4607.901526439372,0.0,0.0,0.0,2019-03-17T21:15:25.021155,2,EyesOpen
7490.203677440129,16213.240172057174,-5285.964046235567,-4540.890996562362,35732.638625221094,-3798.1872318014184,7820.02601862264,4785.061452992136,0.0,0.0,0.0,2019-03-17T21:15:25.021874,2,EyesOpen
7320.017495157421,16086.461077506672,-5449.17648424822,-4661.053974754092,35614.24143484133,-3381.751880854593,7700.488889275657,4722.342458050544,0.0,0.0,0.0,2019-03-17T21:15:25.027534,2,EyesOpen
7139.281289491808,15925.707331384103,-5640.283899341095,-4849.657994467973,35434.68987163185,-3475.4056901223294,7516.846956830855,4533.649031358842,0.0,0.0,0.0,2019-03-17T21:15:25.028268,2,EyesOpen
7303.119576349209,16047.41257994325,-5480.4242229967385,-4733.406571555922,35548.23673346481,-3881.1792589639736,7627.756312818088,4592.232953576202,-0.016,1.002,0.274,2019-03-17T21:15:25.035567,2,EyesOpen
7453.166836877685,16183.400593209339,-5311.713255848081,-4576.072642335015,35695.244156747365,-3890.9022678020324,7764.124305739917,4738.480417547276,0.0,0.0,0.0,2019-03-17T21:15:25.042028,2,EyesOpen
7339.26234713344,16093.971263643654,-5425.237765936586,-4649.699288570797,35623.42800181246,-3467.359062118419,7671.744545906133,4720.420208027388,0.0,0.0,0.0,2019-03-17T21:15:25.042727,2,EyesOpen
7155.307490266263,15920.09704352582,-5628.728047457701,-4839.264433296255,35442.82590661358,-3432.199768090221,7469.260092885505,4550.546950167054,0.0,0.0,0.0,2019-03-17T21:15:25.049880,2,EyesOpen
7260.092468272743,15996.383547351785,-5529.843929987423,-4780.188772700879,35502.572119542616,-3842.7119067563904,7522.591355155869,4558.5041711931435,0.0,0.0,0.0,2019-03-17T21:15:25.050333,2,EyesOpen
7452.920967688677,16177.611491395413,-5317.792930339924,-4588.723729696719,35678.1227204946,-3946.491056262381,7703.2828573325705,4724.778798196173,0.0,0.0,0.0,2019-03-17T21:15:25.057802,2,EyesOpen
7396.572219916848,16148.531871859059,-5363.949282640134,-4600.257229835657,35665.20341219943,-3526.2335570136975,7681.176982066272,4763.179095170391,0.0,0.0,0.0,2019-03-17T21:15:25.058141,2,EyesOpen
7197.641694264615,15958.296174799942,-5578.883657322366,-4796.572601386619,35487.5740990131,-3374.5322673955284,7487.365005894305,4601.575982758521,0.0,0.0,0.0,2019-03-17T21:15:25.064378,2,EyesOpen
7224.66495331108,15966.365154548306,-5556.95659601171,-4811.816491105138,35480.60035474305,-3772.885057078011,7474.490401088047,4544.959014053227,0.0,0.0,0.0,2019-03-17T21:15:25.064656,2,EyesOpen
7437.14063610323,16156.19852020723,-5332.232157258053,-4613.869442208939,35664.95754301042,-3972.709652508456,7665.463705714191,4706.115091575992,0.0,0.0,0.0,2019-03-17T21:15:25.072502,2,EyesOpen
7442.862682683788,16178.103229773431,-5321.257450730497,-4572.09403182197,35696.49585443686,-3599.1225956824537,7692.576371738479,4788.168345471424,-0.014,1.006,0.27,2019-03-17T21:15:25.072785,2,EyesOpen
7244.222729709474,15999.401032853251,-5541.422133615271,-4761.547417825153,35520.07353545112,-3344.42446761423,7505.402863669738,4642.144398944903,0.0,0.0,0.0,2019-03-17T21:15:25.080435,2,EyesOpen
7219.166424175075,15948.372000261785,-5588.651369649336,-4831.508377970264,35457.265133531706,-3686.3167508026067,7441.432171038648,4538.164083738814,0.0,0.0,0.0,2019-03-17T21:15:25.080831,2,EyesOpen
7407.993961333509,16115.183069131741,-5381.249532848541,-4655.0637072400705,35620.14229537753,-3986.6347893041125,7610.277248654038,4667.73714634623,0.0,0.0,0.0,2019-03-17T21:15:25.087467,2,EyesOpen
7434.167854090674,16159.05954349751,-5336.099009048821,-4590.645979719875,35671.752473324836,-3705.3827888229835,7656.947691076719,4760.98862421377,0.0,0.0,0.0,2019-03-17T21:15:25.087830,2,EyesOpen
7237.4501511395165,15982.30194834494,-5551.346308153428,-4769.147010939957,35504.31555561013,-3370.687767349216,7471.092935930841,4636.712925042263,0.0,0.0,0.0,2019-03-17T21:15:25.094138,2,EyesOpen
7195.875906452645,15935.855023366812,-5604.498756468148,-4841.097276341591,35444.30112174763,-3586.7620809986693,7401.9813420750315,4548.155313510337,0.0,0.0,0.0,2019-03-17T21:15:25.103741,2,EyesOpen
7382.3788621877275,16090.104411852886,-5408.630419806293,-4682.042262797626,35592.6496496975,-3956.6387482450905,7554.464942749137,4651.554483360587,0.0,0.0,0.0,2019-03-17T21:15:25.104425,2,EyesOpen
7478.156087178718,16189.860247356923,-5295.999979496,-4556.4254589588,35703.64841266256,-3758.26701620424,7668.928226104764,4786.581371615097,0.0,0.0,0.0,2019-03-17T21:15:25.111914,2,EyesOpen
7308.618105485214,16049.401885199773,-5475.886818872312,-4700.54950720662,35570.163794775464,-3363.512857379062,7516.422273686204,4698.917829861382,0.0,0.0,0.0,2019-03-17T21:15:25.112657,2,EyesOpen
7201.016807677366,15942.337029258852,-5604.4540529792375,-4835.174064060934,35450.17963053937,-3507.8827748158906,7379.227266219529,4557.028956059094,-0.014,1.006,0.274,2019-03-17T21:15:25.117891,2,EyesOpen
7361.748202055479,16074.346432011895,-5440.325193443918,-4710.987771867249,35570.52142268675,-3920.0265908272972,7501.357197923327,4627.906337726872,0.0,0.0,0.0,2019-03-17T21:15:25.118573,2,EyesOpen
7481.307683146916,16205.30530277554,-5287.752185791992,-4558.682985148786,35705.39184873007,-3833.9723746743653,7641.726153102655,4779.115888967024,0.0,0.0,0.0,2019-03-17T21:15:25.125021,2,EyesOpen
7311.389721797672,16060.868330105344,-5455.41262095125,-4686.512611688687,35577.919850101454,-3430.6574977228047,7501.357197923327,4706.070388087081,0.0,0.0,0.0,2019-03-17T21:15:25.125888,2,EyesOpen
7180.386147545118,15934.424511721672,-5612.3218670275055,-4843.667726953951,35435.20396175432,-3460.251207381631,7345.520835580926,4559.33118573799,0.0,0.0,0.0,2019-03-17T21:15:25.132946,2,EyesOpen
7306.405282784139,16027.675989589214,-5490.907191146278,-4766.442449860865,35519.470038350824,-3888.041244511753,7431.9773831340535,4586.4438517622775,0.0,0.0,0.0,2019-03-17T21:15:25.133844,2,EyesOpen
7487.029729727475,16195.828163126489,-5293.138956205721,-4576.631435946398,35692.24902299035,-3894.2550294703283,7613.0041614775855,4762.106211436536,0.0,0.0,0.0,2019-03-17T21:15:25.141137,2,EyesOpen
7371.9853010160095,16112.970246430667,-5405.747044771558,-4643.932538501327,35617.43773429844,-3471.44943135374,7527.575794169402,4744.805961228128,0.0,0.0,0.0,2019-03-17T21:15:25.141776,2,EyesOpen
7191.271447094852,15947.29911652793,-5606.800986147045,-4830.547252958686,35438.53437167816,-3406.450558477707,7330.20989062904,4576.318511524023,0.0,0.0,0.0,2019-03-17T21:15:25.147708,2,EyesOpen
7278.756174892924,15986.325262346896,-5535.565976567981,-4797.846650820572,35473.64896221745,-3825.523415270259,7370.912417282155,4562.728650895197,0.0,0.0,0.0,2019-03-17T21:15:25.148407,2,EyesOpen
7481.598255824835,16166.279156956572,-5317.748226851014,-4592.09884310947,35661.67183657549,-3947.1839603404956,7571.675785979723,4737.116961135503,-0.018000000000000002,1.004,0.274,2019-03-17T21:15:25.154705,2,EyesOpen
7412.509013713481,16135.411397863794,-5368.911369909211,-4606.739235727696,35642.49403983284,-3546.193664812287,7544.0937333218735,4768.387051628477,0.0,0.0,0.0,2019-03-17T21:15:25.162540,2,EyesOpen
7191.360854072673,15936.547927444928,-5602.598858189447,-4819.751360386773,35439.49549668974,-3385.8869535788244,7326.365390582728,4590.62362797542,0.0,0.0,0.0,2019-03-17T21:15:25.163293,2,EyesOpen
7236.869005783678,15959.614927722805,-5569.965311284699,-4817.985572574803,35445.038729314656,-3750.5333126227038,7323.236146358985,4549.742287366663,0.0,0.0,0.0,2019-03-17T21:15:25.170618,2,EyesOpen
7462.107534659807,16162.68052609927,-5331.159273524198,-4605.95692467176,35640.30356887622,-3962.092573892185,7526.569965668913,4721.917774905894,0.0,0.0,0.0,2019-03-17T21:15:25.171544,2,EyesOpen
7456.09491540133,16179.243168740652,-5325.10195077681,-4571.848162632962,35664.622266843595,-3613.2041946892973,7546.641832189779,4794.918572296926,0.0,0.0,0.0,2019-03-17T21:15:25.177099,2,EyesOpen
7245.38502042115,15993.321358361407,-5553.514427365592,-4766.889484749971,35479.75098845375,-3345.251482159076,7340.044658189376,4642.233805922724,0.0,0.0,0.0,2019-03-17T21:15:25.177912,2,EyesOpen
7219.166424175075,15944.371038004285,-5602.732968656179,-4836.157540816968,35417.43432491235,-3665.9096081149114,7269.435497455061,4541.85212157394,0.0,0.0,0.0,2019-03-17T21:15:25.185267,2,EyesOpen
7428.646973210213,16137.870089753878,-5380.869553192801,-4645.675974568841,35591.04032409672,-3970.6532920185678,7451.602214765813,4681.706986630797,0.0,0.0,0.0,2019-03-17T21:15:25.186007,2,EyesOpen
7501.223087456595,16240.151672381364,-5295.530592862438,-4537.448827916244,35681.56488914071,-3676.72785243128,7542.6855734211895,4812.978781816814,0.0,0.0,0.0,2019-03-17T21:15:25.193362,2,EyesOpen
7292.413090755116,16052.397018956784,-5516.432883314238,-4718.162681837402,35506.01428818873,-3336.646060543783,7346.146684425675,4680.92467557486,-0.024,1.006,0.272,2019-03-17T21:15:25.194162,2,EyesOpen
7201.910877455578,15947.924965372678,-5619.385018275383,-4830.077866325124,35402.01162123819,-3570.959397668767,7227.503624856905,4547.305947221034,0.0,0.0,0.0,2019-03-17T21:15:25.200064,2,EyesOpen
7405.267048509962,16114.423109820262,-5401.187288902675,-4649.699288570797,35573.0471698102,-3929.906061876543,7400.5731821743475,4671.469887670265,0.0,0.0,0.0,2019-03-17T21:15:25.200758,2,EyesOpen
7489.711939062112,16201.170230051308,-5299.777424308947,-4539.840464572962,35670.16549946851,-3771.3427867105947,7496.618628098801,4790.895258294971,0.0,0.0,0.0,2019-03-17T21:15:25.208589,2,EyesOpen
7286.244009285451,16030.537012879493,-5509.414435555272,-4710.451330000321,35505.723715510816,-3399.9462008412124,7313.44608228756,4675.470849927766,0.0,0.0,0.0,2019-03-17T21:15:25.209456,2,EyesOpen
7173.7029759529805,15916.923095813168,-5640.730934230201,-4846.037011866214,35378.56464130457,-3519.0139435546334,7171.691318952003,4534.341935436957,0.0,0.0,0.0,2019-03-17T21:15:25.215097,2,EyesOpen
7326.477149305004,16040.952925795667,-5487.04033935551,-4732.467798288799,35490.56923277012,-3938.578538725202,7288.210962797519,4592.612933231942,0.0,0.0,0.0,2019-03-17T21:15:25.223021,2,EyesOpen
7493.5564391084245,16215.028311613598,-5301.677322587648,-4544.176702997292,35663.30351392073,-3850.646776038024,7465.952034706121,4773.818525531116,0.0,0.0,0.0,2019-03-17T21:15:25.223685,2,EyesOpen
7344.760876269445,16098.598074745903,-5450.338774959895,-4649.4310676373325,35559.122033014544,-3427.9082331548016,7346.034925703398,4723.79532144014,0.0,0.0,0.0,2019-03-17T21:15:25.229494,2,EyesOpen
7182.397804546095,15949.82486365138,-5626.850500923455,-4817.5385376856975,35399.19530143682,-3446.124904885877,7174.999377131388,4564.09210730697,0.0,0.0,0.0,2019-03-17T21:15:25.230155,2,EyesOpen
7312.484957275982,16037.913088549745,-5494.058787114476,-4727.863338931005,35492.40207581545,-3860.7050610429123,7270.888360844656,4600.4136920468445,-0.02,1.006,0.274,2019-03-17T21:15:25.237482,2,EyesOpen
7509.359122438326,16216.458823258738,-5280.957255477579,-4527.3905429113565,35675.731083837876,-3888.6670933565015,7456.609005523802,4779.13824071148,0.0,0.0,0.0,2019-03-17T21:15:25.238418,2,EyesOpen
7405.937600843621,16140.999333977621,-5380.131945625776,-4591.651808220364,35612.90033017401,-3472.969349976701,7380.523667397937,4770.823391774105,0.0,0.0,0.0,2019-03-17T21:15:25.245708,2,EyesOpen
7200.502717554894,15954.652840453726,-5605.303419268539,-4801.355874700055,35420.630624369456,-3400.393235730319,7169.791420673302,4590.802441931062,0.0,0.0,0.0,2019-03-17T21:15:25.246344,2,EyesOpen
7244.982689020955,15974.769410463503,-5569.920607795788,-4801.624095633519,35426.12915350546,-3834.419409563471,7172.026595118832,4544.221406486203,0.0,0.0,0.0,2019-03-17T21:15:25.252480,2,EyesOpen
7454.060906655897,16155.617374851392,-5352.840465645846,-4603.945267670782,35602.596175980114,-3984.846649747688,7353.634518818202,4706.919754376382,0.0,0.0,0.0,2019-03-17T21:15:25.253385,2,EyesOpen
7430.032781366442,16154.455084139716,-5370.900675165734,-4583.806345916551,35607.33474580464,-3574.155697125876,7353.701574051568,4768.767031284217,0.0,0.0,0.0,2019-03-17T21:15:25.260275,2,EyesOpen
7205.040121679321,15956.083352098865,-5611.8524803939445,-4793.130432740501,35407.24192944073,-3389.8208606029584,7137.336687724196,4595.943343155783,0.0,0.0,0.0,2019-03-17T21:15:25.260914,2,EyesOpen
7205.33069435724,15941.174738547175,-5618.982686875187,-4826.389828489999,35378.65404828239,-3765.7772023412235,7101.59624834016,4522.5178626201,0.0,0.0,0.0,2019-03-17T21:15:25.268331,2,EyesOpen
7447.623604252769,16156.176168462775,-5369.537218753961,-4607.05216015007,35582.32314375915,-3992.6027050736793,7311.25561133094,4695.386254237444,0.0,0.0,0.0,2019-03-17T21:15:25.269025,2,EyesOpen
7471.763488264501,16203.360701007929,-5334.713200892592,-4544.690793119764,35638.135449664056,-3642.52968341466,7358.350736898272,4792.169307728924,-0.026000000000000002,1.006,0.266,2019-03-17T21:15:25.275307,2,EyesOpen
7269.748421877435,16011.940361492678,-5561.829276302967,-4734.702972734329,35460.5731917111,-3353.678089818727,7158.682603679014,4650.123971715448,0.0,0.0,0.0,2019-03-17T21:15:25.275947,2,EyesOpen
7245.899110543623,15964.599366736338,-5607.136262313875,-4797.399615931466,35403.86681602798,-3637.2323199787525,7097.528230849294,4559.934682838283,0.0,0.0,0.0,2019-03-17T21:15:25.282373,2,EyesOpen
7425.94241213112,16127.141252415331,-5402.997780203555,-4625.157073158869,35562.2959807272,-3966.875847205621,7265.881570086667,4680.097661030014,0.0,0.0,0.0,2019-03-17T21:15:25.289556,2,EyesOpen
7472.679909787168,16186.77570662209,-5334.936718337145,-4537.202958727236,35637.219028141386,-3723.68886753188,7338.7035535220575,4787.095461737569,0.0,0.0,0.0,2019-03-17T21:15:25.290428,2,EyesOpen
7276.789221380856,16017.21537318413,-5546.004241228609,-4709.892536388938,35474.58773548457,-3366.105659735878,7157.207388544964,4669.055899269092,0.0,0.0,0.0,2019-03-17T21:15:25.298003,2,EyesOpen
7161.230702546919,15910.418738176673,-5670.592864822491,-4841.544311230697,35353.016597392154,-3589.511345566672,7026.226166036865,4522.160234708815,0.0,0.0,0.0,2019-03-17T21:15:25.298697,2,EyesOpen
7362.955196256065,16079.889664636812,-5461.402888465273,-4671.000501036704,35514.75382027076,-3962.4949052923807,7193.819545962757,4639.752762288184,0.0,0.0,0.0,2019-03-17T21:15:25.304979,2,EyesOpen
7506.855727059332,16215.654160458347,-5299.308037675386,-4504.636467055853,35664.57756335468,-3778.98708331431,7343.956213469054,4813.962258572848,0.0,0.0,0.0,2019-03-17T21:15:25.305850,2,EyesOpen
7319.816329457322,16054.65454514677,-5494.438766770216,-4663.356204432989,35517.50308483876,-3389.6867501362267,7181.995473145899,4714.8769754024715,0.0,0.0,0.0,2019-03-17T21:15:25.312466,2,EyesOpen
7195.719444241458,15929.618886663782,-5637.4452277952705,-4811.57062191613,35383.39261810692,-3492.571829864005,7036.3515062751185,4566.774316641608,0.0,0.0,0.0,2019-03-17T21:15:25.313117,2,EyesOpen
7336.043695931876,16038.516585650039,-5497.813880182967,-4715.569879480587,35476.711151207826,-3930.6660211880235,7136.6661353905365,4612.282468352612,-0.02,1.006,0.264,2019-03-17T21:15:25.320644,2,EyesOpen
7499.166726966707,16200.946712606754,-5318.351723951308,-4541.360383195923,35634.24624612883,-3878.4076426515157,7299.58800072527,4780.971083756815,0.0,0.0,0.0,2019-03-17T21:15:25.321284,2,EyesOpen
7349.544149582881,16088.651548463291,-5458.497161686082,-4648.961681003771,35535.004500747265,-3458.5077713141172,7182.844839435201,4731.819597699595,0.0,0.0,0.0,2019-03-17T21:15:25.328503,2,EyesOpen
7176.005205631877,15924.701502883614,-5658.366460605438,-4842.304270542178,35359.453899795284,-3457.770163747092,6990.373967930552,4556.492514192166,0.0,0.0,0.0,2019-03-17T21:15:25.329271,2,EyesOpen
7297.174012324097,16019.629361585303,-5547.077124962464,-4764.877827748994,35434.399298953926,-3875.47956412787,7062.726564732381,4579.134831325392,0.0,0.0,0.0,2019-03-17T21:15:25.336509,2,EyesOpen
7509.672046860701,16217.263486059128,-5311.467386659073,-4537.962918038716,35637.37549035257,-3911.3094104897277,7277.727994647979,4781.239304690279,0.0,0.0,0.0,2019-03-17T21:15:25.337401,2,EyesOpen
7408.753920644989,16143.52508110107,-5392.44775682065,-4581.101784837459,35594.66130669848,-3485.665140827315,7227.682438812547,4791.252886206256,0.0,0.0,0.0,2019-03-17T21:15:25.342690,2,EyesOpen
7190.265618594363,15945.689790927148,-5630.0468003805645,-4794.315075196633,35392.51212984468,-3383.8529448333916,7008.47888093935,4604.146433370881,0.0,0.0,0.0,2019-03-17T21:15:25.350500,2,EyesOpen
7238.947718018022,15975.618776752804,-5592.674683651291,-4786.3131506816335,35390.47812109925,-3801.3835312585275,7010.311723984686,4561.745174139163,0.0,0.0,0.0,2019-03-17T21:15:25.351449,2,EyesOpen
7470.24356964154,16179.623148396391,-5341.351668995818,-4553.765601368618,35595.44361775442,-3951.2072743424505,7228.688267313036,4755.803019500139,0.0,0.0,0.0,2019-03-17T21:15:25.358064,2,EyesOpen
7438.861720426288,16168.022593024087,-5368.687852464659,-4548.512941421622,35601.81386492418,-3565.2820545771187,7225.179043433553,4803.702807867862,-0.022,1.012,0.27,2019-03-17T21:15:25.358706,2,EyesOpen
7214.3831508616395,15966.991003393056,-5616.814567663022,-4766.174228927402,35400.11172295949,-3360.5624271109614,7005.2378779933315,4626.67699178183,0.0,0.0,0.0,2019-03-17T21:15:25.364923,2,EyesOpen
7226.609555078692,15962.453599268629,-5618.535651986081,-4793.845688563071,35372.37320809045,-3714.3458383495617,6976.627645090538,4560.292310749568,0.0,0.0,0.0,2019-03-17T21:15:25.365863,2,EyesOpen
7434.100798857307,16149.358886403907,-5392.335998098373,-4596.882116422906,35549.91311429896,-3982.387957857604,7168.204446816975,4710.563088722598,0.0,0.0,0.0,2019-03-17T21:15:25.372869,2,EyesOpen
7466.622587039779,16194.44235497026,-5352.661651690203,-4532.084409246971,35609.256995827796,-3651.8950643414337,7221.468653853972,4809.961296315348,0.0,0.0,0.0,2019-03-17T21:15:25.373533,2,EyesOpen
7243.149845975619,16003.178477666197,-5591.266523750606,-4737.519292535698,35423.80457208211,-3353.8569037743696,7015.609087420594,4657.723564830251,0.0,0.0,0.0,2019-03-17T21:15:25.380806,2,EyesOpen
7179.13444985562,15926.266124995485,-5676.471373614237,-4841.812532164161,35326.01569009014,-3650.2410352517413,6918.758978695748,4529.424551656789,0.0,0.0,0.0,2019-03-17T21:15:25.381466,2,EyesOpen
7401.958990330576,16122.335627357439,-5434.513739885538,-4639.01515472116,35512.1833696584,-3973.201390886473,7120.416417171528,4677.728376117751,0.0,0.0,0.0,2019-03-17T21:15:25.387925,2,EyesOpen
7521.764340611022,16248.846500974478,-5293.027197483444,-4486.710368002698,35654.94396149444,-3697.8949544304555,7257.2314449824635,4843.4889129983085,0.0,0.0,0.0,2019-03-17T21:15:25.388621,2,EyesOpen
7317.201175356052,16073.295900022496,-5498.998522639099,-4659.154076475391,35497.386514828984,-3326.028981927512,7081.792602752758,4725.225833085279,0.0,0.0,0.0,2019-03-17T21:15:25.395983,2,EyesOpen
7166.148086327087,15917.660703380192,-5667.798896765577,-4838.124494329035,35330.82131514804,-3562.6892522203034,6904.520917477717,4533.783141825574,-0.018000000000000002,1.004,0.272,2019-03-17T21:15:25.396817,2,EyesOpen
7359.177751443119,16080.873141392845,-5473.294016515496,-4678.890666829428,35474.14070059547,-3959.0303849018082,7055.976337906878,4633.538977329609,0.0,0.0,0.0,2019-03-17T21:15:25.402528,2,EyesOpen
7493.6681978307015,16218.626942470903,-5322.330334464352,-4521.042647486049,35615.22491159736,-3820.740141956823,7198.334598342729,4789.464746649832,0.0,0.0,0.0,2019-03-17T21:15:25.410358,2,EyesOpen
7304.0136461274205,16062.9917458286,-5512.56603152347,-4669.368823691467,35480.98033439879,-3416.4417882492294,7049.136704103555,4696.2132687822905,0.0,0.0,0.0,2019-03-17T21:15:25.411256,2,EyesOpen
7143.908100594056,15913.413871933684,-5690.93295227682,-4844.137113587512,35316.85147486347,-3508.441568427273,6876.3353677195755,4523.747208565141,0.0,0.0,0.0,2019-03-17T21:15:25.417315,2,EyesOpen
7298.246896057952,16036.728446093613,-5543.366735382883,-4731.327859321578,35419.5577406356,-3930.0178205988195,6992.653845864993,4586.890886651384,0.0,0.0,0.0,2019-03-17T21:15:25.418088,2,EyesOpen
7492.707072819123,16218.291666304072,-5331.762770624491,-4522.2272899421805,35609.21229233889,-3878.2288286958733,7190.1985633609975,4785.262618692233,0.0,0.0,0.0,2019-03-17T21:15:25.425071,2,EyesOpen
7360.272986921429,16116.18889763223,-5465.359147233862,-4615.836395721006,35521.302881396165,-3451.3105095995084,7084.027777198288,4746.4599903178205,0.0,0.0,0.0,2019-03-17T21:15:25.425780,2,EyesOpen
7164.158781070564,15937.374941989774,-5679.757080049167,-4819.974877831326,35328.56378895805,-3436.379544303363,6873.384937451475,4559.420592715811,0.0,0.0,0.0,2019-03-17T21:15:25.433036,2,EyesOpen
7251.19647397953,15992.293178116463,-5597.033273820076,-4777.6853773218845,35363.47721379724,-3878.2511804403284,6912.299324548165,4547.216540243214,0.0,0.0,0.0,2019-03-17T21:15:25.433674,2,EyesOpen
7462.308700359906,16186.842761855456,-5368.352576297829,-4565.366156740923,35553.869373067544,-3955.677623233512,7113.532079879294,4731.529025021676,-0.02,1.006,0.272,2019-03-17T21:15:25.440093,2,EyesOpen
7392.437147192615,16150.498825371127,-5424.298992669463,-4588.410805274344,35532.23288443481,-3531.1732925383203,7076.092907916654,4756.160647411424,0.0,0.0,0.0,2019-03-17T21:15:25.440733,2,EyesOpen
7186.331711570229,15957.938546888656,-5647.414105822338,-4793.018674018225,35342.064242609056,-3399.7897386300256,6864.578350136084,4576.81024990204,0.0,0.0,0.0,2019-03-17T21:15:25.447690,2,EyesOpen
7229.247060924418,15983.240721612065,-5606.733930913679,-4781.507525623742,35350.580257246525,-3794.1192143105527,6876.69299563086,4538.991098283661,0.0,0.0,0.0,2019-03-17T21:15:25.448735,2,EyesOpen
7452.540988032936,16187.468610700203,-5366.296215807941,-4562.371022983912,35550.49425965479,-3973.35785309766,7091.448556357451,4717.760350437206,0.0,0.0,0.0,2019-03-17T21:15:25.455740,2,EyesOpen
7425.562432475381,16176.762125106112,-5392.045425420454,-4551.5751304119985,35559.63612313702,-3608.957363242789,7094.600152325649,4768.878790006494,0.0,0.0,0.0,2019-03-17T21:15:25.456415,2,EyesOpen
7221.848633509712,15998.238742141575,-5620.033218864586,-4747.778743240684,35379.726932016245,-3368.4972963925957,6896.206068540343,4614.785863731607,0.0,0.0,0.0,2019-03-17T21:15:25.462949,2,EyesOpen
7212.259735138386,15970.58963425036,-5645.02246916562,-4801.065302022136,35339.270274552146,-3711.4177598259166,6850.07206798459,4532.017354013605,0.0,0.0,0.0,2019-03-17T21:15:25.469609,2,EyesOpen
7423.6401824522245,16148.755389303613,-5418.532242599994,-4610.091997395993,35518.21834066133,-3997.6989028094895,7035.435084752451,4677.504858673198,0.0,0.0,0.0,2019-03-17T21:15:25.470289,2,EyesOpen
7466.175552150674,16205.439413242271,-5356.1038203363205,-4531.257394702125,35588.04519033971,-3686.54026824716,7100.903344262046,4784.6144181030295,0.0,0.0,0.0,2019-03-17T21:15:25.477248,2,EyesOpen
7246.904939044111,16014.734329549592,-5589.031349305075,-4731.059638388114,35403.017449738676,-3375.269874962554,6901.548135465162,4638.657526809875,-0.018000000000000002,1.0,0.272,2019-03-17T21:15:25.477945,2,EyesOpen
7190.399729061095,15943.454616481617,-5667.664786298846,-4827.038029079203,35316.15857078535,-3633.6113373769927,6810.107148898501,4524.194243454247,0.0,0.0,0.0,2019-03-17T21:15:25.485321,2,EyesOpen
7378.824934819333,16097.122859611853,-5469.896551358289,-4666.30663470109,35469.089206348566,-4000.3140569107604,6972.023185732745,4636.355297130978,0.0,0.0,0.0,2019-03-17T21:15:25.486079,2,EyesOpen
7474.356290621316,16206.10996557593,-5349.666517933192,-4532.352630180434,35587.75461766179,-3774.919065823444,7092.968474980411,4785.642598347974,0.0,0.0,0.0,2019-03-17T21:15:25.493318,2,EyesOpen
7278.197381281541,16038.94126879469,-5550.362831397394,-4700.415396739888,35429.32545296258,-3394.157099027288,6921.217670585832,4676.946065061816,0.0,0.0,0.0,2019-03-17T21:15:25.494018,2,EyesOpen
7154.078144321221,15912.497450411018,-5693.9727895227425,-4853.502494514286,35292.1304454959,-3570.7135284797587,6778.5464857276065,4518.963935251705,0.0,0.0,0.0,2019-03-17T21:15:25.500036,2,EyesOpen
7346.124332681219,16073.385307000317,-5501.524269762549,-4701.041245584637,35437.52854317767,-3958.4715912904253,6931.812397457647,4616.998686432682,0.0,0.0,0.0,2019-03-17T21:15:25.501594,2,EyesOpen
7480.748889535534,16202.913666118822,-5354.025108101977,-4549.496418177655,35572.264858754264,-3851.585549305147,7070.907303203024,4766.867133005516,0.0,0.0,0.0,2019-03-17T21:15:25.508032,2,EyesOpen
7328.041771416876,16084.56117922797,-5508.900345432799,-4667.938312046327,35462.60720045653,-3430.411628533796,6947.3021563651755,4703.83521364155,0.0,0.0,0.0,2019-03-17T21:15:25.508727,2,EyesOpen
7194.870077952156,15956.77625617698,-5663.149733918874,-4820.980706331815,35322.819390633034,-3471.382376120374,6792.538677756629,4556.917197336817,0.0,0.0,0.0,2019-03-17T21:15:25.517353,2,EyesOpen
7320.822157957811,16040.483539162105,-5539.209310914196,-4734.1888826118575,35399.597632837016,-3908.1131110326187,6875.642463641461,4589.103709352459,-0.018000000000000002,0.996,0.262,2019-03-17T21:15:25.518478,2,EyesOpen
7503.368854924304,16215.475346502704,-5338.647107916726,-4540.376906439889,35571.5943064206,-3904.3133144752164,7059.306747830719,4765.906007993938,0.0,0.0,0.0,2019-03-17T21:15:25.523850,2,EyesOpen
7366.106792224264,16115.965380187678,-5473.070499070943,-4635.640041308408,35487.26117459073,-3491.163669963321,6960.623796060539,4727.08102787507,0.0,0.0,0.0,2019-03-17T21:15:25.524589,2,EyesOpen
7146.769123884335,15906.708348597092,-5717.285658989627,-4864.097221386101,35275.34428540996,-3475.562152333516,6731.741932838194,4519.545080607543,0.0,0.0,0.0,2019-03-17T21:15:25.529877,2,EyesOpen
7256.516189159893,15987.085221658377,-5615.808739162533,-4793.5327641406975,35341.46074550876,-3877.401814151027,6804.273343595665,4539.773409339597,0.0,0.0,0.0,2019-03-17T21:15:25.537466,2,EyesOpen
7511.259020717028,16218.06814885952,-5349.130076066265,-4545.741325109163,35569.62735290854,-3943.4735707609143,7042.274718555775,4759.066374190614,0.0,0.0,0.0,2019-03-17T21:15:25.538354,2,EyesOpen
7428.825787165855,16162.613470865903,-5421.773245546013,-4588.589619229987,35530.19887568938,-3550.3287375365185,6989.166973729965,4764.587255071075,0.0,0.0,0.0,2019-03-17T21:15:25.545564,2,EyesOpen
7208.169365903064,15970.232006339074,-5656.779486749111,-4801.199412488868,35333.61528320495,-3393.3971397158075,6772.712680424772,4587.449680262766,0.0,0.0,0.0,2019-03-17T21:15:25.546515,2,EyesOpen
7244.893282043134,15981.050250655444,-5636.819378950522,-4811.19064226039,35328.11675406894,-3781.8928100934995,6765.448363476797,4536.107723248926,0.0,0.0,0.0,2019-03-17T21:15:25.552078,2,EyesOpen
7477.373776122782,16183.177075764785,-5398.393320845762,-4598.491442023688,35520.47586685132,-3988.713501538456,6974.370118900552,4712.150062578924,0.0,0.0,0.0,2019-03-17T21:15:25.553012,2,EyesOpen
7475.7644505220005,16204.031253341587,-5385.518716039505,-4558.392412470867,35554.80814633467,-3622.346058171518,7009.261191995286,4792.61634261803,-0.014,1.004,0.258,2019-03-17T21:15:25.560158,2,EyesOpen
7227.034238223343,15992.69550951666,-5637.9146144288325,-4782.491002379776,35348.25567582317,-3383.8752965778467,6787.86716316547,4617.311610855057,0.0,0.0,0.0,2019-03-17T21:15:25.560936,2,EyesOpen
7197.865211709168,15950.92009912969,-5680.1817631938175,-4850.037974123714,35291.34813443996,-3714.569355794115,6724.0752844900235,4525.781217310574,0.0,0.0,0.0,2019-03-17T21:15:25.568039,2,EyesOpen
7396.8180891058555,16126.537755315037,-5470.455344969671,-4672.900399315405,35454.15824105242,-4032.32175497076,6894.1273563059995,4656.069535740559,0.0,0.0,0.0,2019-03-17T21:15:25.568718,2,EyesOpen
7457.525427046469,16179.153761762831,-5393.118309154309,-4574.329206267501,35540.99476826129,-3734.9988502262654,6983.511982382773,4776.187810443379,0.0,0.0,0.0,2019-03-17T21:15:25.575421,2,EyesOpen
7248.983651278455,15989.007471681532,-5611.248983293651,-4753.858417732527,35372.104987156985,-3393.0842152934333,6795.064424880079,4646.30182341359,0.0,0.0,0.0,2019-03-17T21:15:25.576307,2,EyesOpen
7168.6514817060815,15903.221476462064,-5714.268173488161,-4869.953378433393,35262.46968060371,-3646.173017760875,6678.3436153344655,4509.755016536119,0.0,0.0,0.0,2019-03-17T21:15:25.583512,2,EyesOpen
7369.437202148105,16071.08307732142,-5509.816766955468,-4701.756501407207,35412.60634811001,-4019.000115275397,6842.45012312533,4621.53609055711,0.0,0.0,0.0,2019-03-17T21:15:25.584161,2,EyesOpen
7500.306665933927,16208.523953977103,-5360.663576205204,-4539.773409339597,35554.584628890116,-3795.9297056114324,6992.027997020245,4792.348121684566,0.0,0.0,0.0,2019-03-17T21:15:25.589955,2,EyesOpen
7306.8746694177,16056.46503644765,-5555.213159944196,-4695.07332981507,35414.17097022188,-3396.3028664949975,6835.476378855274,4697.956704849805,0.0,0.0,0.0,2019-03-17T21:15:25.598360,2,EyesOpen
7174.440583520006,15925.640276150738,-5709.3507897079935,-4854.284805570222,35270.337494651976,-3547.6465282018817,6680.377624079898,4536.912386049317,-0.02,1.014,0.252,2019-03-17T21:15:25.599060,2,EyesOpen
7344.02326870242,16054.073399790932,-5535.945956223722,-4721.1578155944135,35394.72495254576,-3964.014823915342,6814.421035578374,4614.29412535359,0.0,0.0,0.0,2019-03-17T21:15:25.604931,2,EyesOpen
7499.926686278187,16203.58421845248,-5360.261244805008,-4548.088258276971,35548.639064865005,-3869.6904623139458,6979.600427103094,4786.894296037472,0.0,0.0,0.0,2019-03-17T21:15:25.605575,2,EyesOpen
7339.619975044725,16087.176333329242,-5518.511595548582,-4669.391175435922,35434.7122233763,-3449.187093876254,6852.843684297048,4721.4483882723325,0.0,0.0,0.0,2019-03-17T21:15:25.612521,2,EyesOpen
7162.37064151414,15919.493546425529,-5716.480996189237,-4864.432497552932,35257.21702065671,-3501.154899734843,6655.209559823223,4533.5596243810205,0.0,0.0,0.0,2019-03-17T21:15:25.613223,2,EyesOpen
7308.483995018482,16032.436911158195,-5574.994453787142,-4762.195618414356,35351.2955130691,-3919.9148321050207,6758.072287806545,4577.816078402529,0.0,0.0,0.0,2019-03-17T21:15:25.620460,2,EyesOpen
7518.702151620645,16228.55111700906,-5349.040669088444,-4542.634432629876,35547.27560845323,-3915.3997797250486,6967.619892075049,4778.46768837782,0.0,0.0,0.0,2019-03-17T21:15:25.621371,2,EyesOpen
7393.487679182015,16131.119862928375,-5471.282359514518,-4624.10654116947,35474.475976762296,-3500.5290508900944,6876.022443297201,4750.840932231061,0.0,0.0,0.0,2019-03-17T21:15:25.628571,2,EyesOpen
7184.700034224991,15949.936622373656,-5694.598638367491,-4827.440360479398,35282.563898869026,-3433.920852413279,6666.497190773152,4568.7189184092185,0.0,0.0,0.0,2019-03-17T21:15:25.629441,2,EyesOpen
7251.777619335368,16000.004529953543,-5634.964184160732,-4801.199412488868,35300.51234966664,-3859.743936031334,6692.291103874577,4547.373002454401,0.0,0.0,0.0,2019-03-17T21:15:25.635291,2,EyesOpen
7475.831505755366,16197.616302682914,-5397.432195834183,-4578.2854650360905,35497.92295669591,-3977.1129461661517,6911.517013492229,4740.492074548254,-0.018000000000000002,1.02,0.25,2019-03-17T21:15:25.636051,2,EyesOpen
7437.833540181344,16171.218892481196,-5427.428236893205,-4575.089165578981,35499.21935787432,-3559.8505806744793,6907.292533790176,4790.04589200567,0.0,0.0,0.0,2019-03-17T21:15:25.643162,2,EyesOpen
7224.150863188608,15981.564340777915,-5661.40629785136,-4786.268447192722,35304.26744273513,-3381.19308724321,6687.932513705792,4611.030770663116,0.0,0.0,0.0,2019-03-17T21:15:25.643836,2,EyesOpen
7244.222729709474,15979.999718666044,-5646.296518599573,-4804.082787523602,35286.967192526725,-3759.6975278493796,6670.207580352733,4551.597482156454,0.0,0.0,0.0,2019-03-17T21:15:25.650302,2,EyesOpen
7458.6877177581455,16170.637747125358,-5418.711056555636,-4602.648866492375,35466.25053480274,-3998.3694551431486,6863.505466402229,4710.02664685567,0.0,0.0,0.0,2019-03-17T21:15:25.658173,2,EyesOpen
7452.920967688677,16198.510372461125,-5405.255306393541,-4560.024089816105,35499.33111659659,-3650.9786428187663,6895.379053995497,4786.760185570739,0.0,0.0,0.0,2019-03-17T21:15:25.659060,2,EyesOpen
7239.640622096136,16008.364082379829,-5641.177969119307,-4763.89435099296,35307.66490789234,-3379.2931889645088,6686.300836360555,4629.135683671914,0.0,0.0,0.0,2019-03-17T21:15:25.664930,2,EyesOpen
7213.779653761346,15944.907479871212,-5696.587943624013,-4836.939851872904,35238.530962292076,-3694.9445241623553,6612.540079658042,4523.926022520784,0.0,0.0,0.0,2019-03-17T21:15:25.665756,2,EyesOpen
7407.122243299752,16112.053824907998,-5479.507801474071,-4647.911149014371,35406.169045706876,-4017.5249001413467,6795.131480113445,4660.629291609442,0.0,0.0,0.0,2019-03-17T21:15:25.672833,2,EyesOpen
7502.161860723718,16220.63859947188,-5368.687852464659,-4518.382789895867,35527.06963146563,-3715.664591272425,6913.014580370735,4814.81162486215,0.0,0.0,0.0,2019-03-17T21:15:25.673473,2,EyesOpen
7286.2887127743625,16038.628344372315,-5596.25096276414,-4711.233641056257,35353.50833577017,-3372.677072605738,6719.537880365597,4678.220114495768,-0.02,1.02,0.252,2019-03-17T21:15:25.680933,2,EyesOpen
7183.6271504911365,15921.035816792944,-5719.789054368622,-4847.556930489174,35227.958587164714,-3618.0098197471884,6588.534306113042,4526.138845221859,0.0,0.0,0.0,2019-03-17T21:15:25.681572,2,EyesOpen
7381.641254620702,16094.261836321573,-5510.397912311306,-4679.047129040615,35383.59378380702,-3992.937981240509,6756.418258716853,4637.651698309386,0.0,0.0,0.0,2019-03-17T21:15:25.687446,2,EyesOpen
7507.839203815366,16227.54528850857,-5364.865704162801,-4529.84923480144,35521.50404709626,-3807.2173365613626,6899.380016252997,4794.76211008574,0.0,0.0,0.0,2019-03-17T21:15:25.688089,2,EyesOpen
7321.671524247114,16063.930519095722,-5565.67377634928,-4693.754576892206,35374.60838253598,-3414.1619103147877,6732.703057849772,4690.938257090838,0.0,0.0,0.0,2019-03-17T21:15:25.695664,2,EyesOpen
7158.459086234461,15898.929941526645,-5756.848246675521,-4886.180744907945,35196.59908969392,-3567.1596011113647,6545.283680592022,4499.584972808954,0.0,0.0,0.0,2019-03-17T21:15:25.696364,2,EyesOpen
7332.869748219222,16051.122969522832,-5571.8652095634,-4743.397801327444,35330.173114558835,-3968.97691118442,6692.984007952691,4589.57309598602,0.0,0.0,0.0,2019-03-17T21:15:25.703535,2,EyesOpen
7507.168651481707,16222.40438728385,-5376.533314768471,-4549.675232133297,35507.824779489616,-3881.693349086446,6883.0855945450785,4778.512391866731,0.0,0.0,0.0,2019-03-17T21:15:25.704239,2,EyesOpen
7367.447896891582,16100.743842213613,-5527.340534608428,-4660.092849742514,35408.02424049666,-3453.344518344941,6765.828343132537,4725.181129596368,0.0,0.0,0.0,2019-03-17T21:15:25.710763,2,EyesOpen
7178.262731821863,15924.790909861436,-5737.335173766038,-4867.315872587666,35218.88377891586,-3489.241419940164,6560.214645888168,4532.844368558451,0.0,0.0,0.0,2019-03-17T21:15:25.716999,2,EyesOpen
7292.122518077197,16016.79069003948,-5615.719332184713,-4785.486136136787,35291.45989316224,-3918.171396037507,6639.317469515499,4558.168895026314,-0.016,1.014,0.25,2019-03-17T21:15:25.717668,2,EyesOpen
7506.4086921702265,16212.25669530114,-5381.920085182201,-4558.3253572375015,35494.74900898326,-3943.7194399499226,6850.720268573794,4757.837028245572,0.0,0.0,0.0,2019-03-17T21:15:25.725080,2,EyesOpen
7405.781138632434,16132.036284451044,-5488.18027832273,-4625.20177664778,35435.9639210658,-3532.2014727832643,6777.33949152702,4741.922586193394,0.0,0.0,0.0,2019-03-17T21:15:25.725740,2,EyesOpen
7185.482345280928,15936.43616872265,-5734.876481875955,-4853.502494514286,35225.49989527463,-3457.054907924522,6546.8035992149835,4541.270976218102,0.0,0.0,0.0,2019-03-17T21:15:25.733006,2,EyesOpen
7245.206206465507,15974.523541274493,-5684.585056851513,-4834.101180327079,35241.48139256017,-3876.820668795189,6570.96583497117,4515.454711372222,0.0,0.0,0.0,2019-03-17T21:15:25.733879,2,EyesOpen
7477.038499955953,16192.140125291364,-5424.0754752249095,-4595.853936177961,35457.98038935428,-4003.3091906677714,6803.91571568438,4719.660248715907,0.0,0.0,0.0,2019-03-17T21:15:25.740352,2,EyesOpen
7429.8539674108,16159.707744086712,-5447.477751669616,-4594.825755933018,35464.12711907949,-3607.1021684529983,6800.808823205093,4765.637787060474,0.0,0.0,0.0,2019-03-17T21:15:25.740996,2,EyesOpen
7193.864249451667,15940.325372257874,-5699.918353547854,-4822.433569721409,35253.193706654754,-3424.2425470641315,6573.469230350164,4575.983235357194,0.0,0.0,0.0,2019-03-17T21:15:25.747719,2,EyesOpen
7218.8534997527,15944.035761837455,-5696.476184901737,-4846.551101988685,35230.08200288797,-3787.905429351977,6550.938671939215,4514.203013682725,0.0,0.0,0.0,2019-03-17T21:15:25.748436,2,EyesOpen
7466.600235295325,16167.441447668249,-5440.436952166195,-4619.099750411481,35435.025147798675,-4022.330525199238,6771.997424602202,4696.146213548925,0.0,0.0,0.0,2019-03-17T21:15:25.756444,2,EyesOpen
7486.359177393816,16200.902009117844,-5409.725655284603,-4564.583845684987,35482.03086638819,-3688.574276992593,6816.946782701824,4783.049795991158,-0.014,1.012,0.254,2019-03-17T21:15:25.757314,2,EyesOpen
7267.468543942994,16001.12211717631,-5645.089524398986,-4768.767031284217,35296.667849620324,-3396.392273472819,6616.518690171086,4630.230919150224,0.0,0.0,0.0,2019-03-17T21:15:25.764334,2,EyesOpen
7211.52212757136,15933.329276243363,-5705.372179194949,-4853.43543928092,35220.314290561,-3693.044625883654,6544.881349191827,4526.697638833241,0.0,0.0,0.0,2019-03-17T21:15:25.765064,2,EyesOpen
7409.625638678746,16095.915865411267,-5501.434862784728,-4681.930504075349,35374.362513346976,-4041.776542875355,6719.627287343417,4649.028736237137,0.0,0.0,0.0,2019-03-17T21:15:25.770685,2,EyesOpen
7529.498044192558,16227.12060536392,-5374.342843811852,-4534.654859859331,35511.06578243563,-3747.5381788656928,6859.683318100371,4816.24213650729,0.0,0.0,0.0,2019-03-17T21:15:25.771324,2,EyesOpen
7322.6773527476025,16045.445626431183,-5595.312189497017,-4722.945955150838,35346.33342580002,-3387.451575690696,6674.36500482142,4687.250219255712,0.0,0.0,0.0,2019-03-17T21:15:25.777554,2,EyesOpen
7220.4851770979385,15930.378845975263,-5721.9124700918765,-4860.789163206717,35217.09563935943,-3603.23531666223,6538.332288066422,4536.778275582585,0.0,0.0,0.0,2019-03-17T21:15:25.785178,2,EyesOpen
7402.115452541763,16092.764269443069,-5520.858528716389,-4696.526193204665,35365.891202198414,-3989.5405160833025,6701.0082842121465,4647.8440937810055,0.0,0.0,0.0,2019-03-17T21:15:25.786128,2,EyesOpen
7539.601032686357,16230.898050176866,-5363.7928204289465,-4536.666516860309,35508.785904501194,-3833.391229318527,6849.602681351028,4810.833014349105,0.0,0.0,0.0,2019-03-17T21:15:25.793369,2,EyesOpen
7367.783173058412,16091.04318512001,-5542.539720838037,-4680.768213363674,35376.307115114585,-3428.7799511885587,6707.132662192901,4723.12476910648,0.0,0.0,0.0,2019-03-17T21:15:25.794052,2,EyesOpen
7197.060548908777,15921.594610404327,-5728.439179472826,-4865.214808608867,35200.04125834003,-3545.6795746898147,6526.038828616003,4537.694697105253,-0.012,1.008,0.244,2019-03-17T21:15:25.800152,2,EyesOpen
7344.090323935786,16033.755664081058,-5586.349139970439,-4755.355984611033,35291.16932048432,-3983.17026891354,6629.281536255066,4588.008473874149,0.0,0.0,0.0,2019-03-17T21:15:25.800846,2,EyesOpen
7545.345431011371,16232.909707177843,-5364.39631752924,-4538.633470372376,35485.83066294559,-3910.974134322898,6832.168320675889,4794.85151706356,0.0,0.0,0.0,2019-03-17T21:15:25.808625,2,EyesOpen
7399.343836229305,16115.786566232035,-5499.199688339197,-4637.227015164735,35400.96108924879,-3481.999454736645,6726.466921146742,4750.773876997695,0.0,0.0,0.0,2019-03-17T21:15:25.809466,2,EyesOpen
7197.731101242435,15921.460499937595,-5726.874557360954,-4853.614253236563,35199.929499617756,-3494.605838609438,6511.420787742232,4547.417705943311,0.0,0.0,0.0,2019-03-17T21:15:25.816229,2,EyesOpen
7320.732750979991,16018.020035984522,-5619.385018275383,-4780.300531423156,35265.88949750537,-3914.9303930914875,6588.914285768782,4570.015319587626,0.0,0.0,0.0,2019-03-17T21:15:25.816971,2,EyesOpen
7518.635096387279,16200.052642828543,-5409.993876218066,-4583.71693893873,35444.34582523654,-3989.2722951498386,6780.222866561755,4746.303528106633,0.0,0.0,0.0,2019-03-17T21:15:25.822718,2,EyesOpen
7438.168816348174,16150.521177115581,-5483.598170709392,-4624.464169080755,35407.77837130766,-3568.053670889577,6737.128703251923,4756.875903233994,0.0,0.0,0.0,2019-03-17T21:15:25.823360,2,EyesOpen
7214.114929928176,15951.76946541899,-5710.669542630857,-4831.709543670362,35214.4134300248,-3450.707012499215,6531.582061240919,4577.570209213521,0.0,0.0,0.0,2019-03-17T21:15:25.830755,2,EyesOpen
7255.063325770298,15951.434189252162,-5679.310045160061,-4831.977764603826,35213.74287769114,-3869.0646134691974,6535.113636864858,4533.492569147655,0.0,0.0,0.0,2019-03-17T21:15:25.831472,2,EyesOpen
7510.9237445501985,16172.403534937328,-5428.322306671418,-4605.442834549289,35421.8599703145,-4030.064228780774,6738.022773030135,4727.1480831084355,-0.018000000000000002,1.008,0.242,2019-03-17T21:15:25.839239,2,EyesOpen
7472.165819664696,16168.827255824479,-5448.50593191456,-4597.239744334191,35429.660729129406,-3648.0729160395763,6719.761397810149,4780.144069211969,0.0,0.0,0.0,2019-03-17T21:15:25.845718,2,EyesOpen
7223.726180043957,15941.666476925193,-5709.12727226344,-4826.322773256633,35214.748706191625,-3442.369811817385,6481.581208894398,4593.4846512656995,0.0,0.0,0.0,2019-03-17T21:15:25.846583,2,EyesOpen
7234.678534827058,15916.587819646338,-5720.884289846932,-4861.236198095822,35182.69630464272,-3792.107557309575,6441.6162898083085,4520.796778297041,0.0,0.0,0.0,2019-03-17T21:15:25.852169,2,EyesOpen
7458.061868913397,16129.689351283236,-5474.121031060342,-4643.105523956481,35379.01167619368,-4051.007813335397,6623.581841418963,4689.3065797456,0.0,0.0,0.0,2019-03-17T21:15:25.852861,2,EyesOpen
7498.138546721762,16189.189695023262,-5412.676085552703,-4559.554703182543,35453.64415092995,-3715.508129061238,6656.461257512719,4799.835956077094,0.0,0.0,0.0,2019-03-17T21:15:25.860226,2,EyesOpen
7288.322721519795,16005.726576534104,-5638.8310359515,-4752.137333409469,35276.86420403292,-3402.4048927312965,6397.628056720264,4654.72843107324,0.0,0.0,0.0,2019-03-17T21:15:25.860991,2,EyesOpen
7256.516189159893,15958.743209689048,-5697.660827357868,-4827.350953501577,35208.669031699785,-3659.62876792297,6293.334817091802,4554.346746724456,0.0,0.0,0.0,2019-03-17T21:15:25.868113,2,EyesOpen
7453.8150374668885,16133.869127496378,-5489.521382990049,-4656.002480507193,35366.6958649988,-4013.0769029947405,6437.995307206548,4675.180277249847,0.0,0.0,0.0,2019-03-17T21:15:25.868938,2,EyesOpen
7536.382381484793,16226.919439663821,-5383.68587299417,-4541.338031451468,35468.21748831481,-3786.877249107033,6531.470302518643,4807.14497651398,0.0,0.0,0.0,2019-03-17T21:15:25.875270,2,EyesOpen
7329.7852074843895,16037.60016412737,-5596.720349397701,-4718.699123704329,35310.90591083836,-3415.413608004285,6352.723402109552,4685.775004121662,-0.018000000000000002,1.01,0.252,2019-03-17T21:15:25.875936,2,EyesOpen
7211.365665360173,15916.476060924062,-5735.479978976247,-4867.070003398658,35181.71282788668,-3608.085645209032,6207.481766638967,4527.971688267194,0.0,0.0,0.0,2019-03-17T21:15:25.882953,2,EyesOpen
7394.918190827155,16067.775019142035,-5545.959537739699,-4718.073274859581,35322.819390633034,-4005.9019930245872,6359.607739401787,4620.016171934149,0.0,0.0,0.0,2019-03-17T21:15:25.883782,2,EyesOpen
7547.222977545617,16216.011788369631,-5371.235951332564,-4544.467275675211,35481.47207277681,-3860.9956337208314,6520.026209357526,4794.85151706356,0.0,0.0,0.0,2019-03-17T21:15:25.891122,2,EyesOpen
7369.772478314934,16071.08307732142,-5551.033383731054,-4687.83136461155,35349.77559444614,-3454.484457312162,6364.793344115418,4709.020818355181,0.0,0.0,0.0,2019-03-17T21:15:25.891805,2,EyesOpen
7194.7136157409695,15895.420717647163,-5757.027060631163,-4892.506288588797,35160.702188098694,-3564.119763865443,6165.393431829623,4510.917307247795,0.0,0.0,0.0,2019-03-17T21:15:25.898172,2,EyesOpen
7326.16422488263,15989.968596693112,-5630.292669569572,-4804.66393287944,35241.21317162671,-4006.930173269531,6256.990880607472,4544.914310564317,0.0,0.0,0.0,2019-03-17T21:15:25.904815,2,EyesOpen
7533.946041339164,16194.48705845917,-5398.549783056949,-4577.3466917689675,35447.36331073801,-3951.386088298093,6470.4947436445655,4758.328766623588,0.0,0.0,0.0,2019-03-17T21:15:25.905540,2,EyesOpen
7412.374903246749,16111.986769674633,-5513.28128734604,-4653.946120017305,35377.648219781906,-3512.2413649846753,6386.854515892806,4738.74863848074,0.0,0.0,0.0,2019-03-17T21:15:25.912688,2,EyesOpen
7214.003171205899,15931.116453542289,-5738.6986301778115,-4864.6783667419395,35183.4562639542,-3491.901277530346,6176.435193590545,4546.434229187278,0.0,0.0,0.0,2019-03-17T21:15:25.913370,2,EyesOpen
7316.485919533482,15986.615835024815,-5649.895149456876,-4816.264488251744,35232.67480524478,-3924.6310501850908,6226.771322103897,4544.020240786104,-0.018000000000000002,1.008,0.252,2019-03-17T21:15:25.920649,2,EyesOpen
7534.7283523951,16181.120715274898,-5414.732446042592,-4600.883078680406,35430.75596460771,-4007.5336703698244,6436.028353694482,4730.836120943561,0.0,0.0,0.0,2019-03-17T21:15:25.921682,2,EyesOpen
7451.199883365618,16136.797206020023,-5481.810031152968,-4633.494273840699,35400.26818517067,-3595.389854358418,6398.633885220753,4747.868150218505,0.0,0.0,0.0,2019-03-17T21:15:25.928014,2,EyesOpen
7232.666877826081,15935.497395455528,-5713.642324643412,-4843.555968231674,35204.24338629763,-3456.4961143131395,6183.900676238618,4567.891903864373,0.0,0.0,0.0,2019-03-17T21:15:25.928948,2,EyesOpen
7277.236256269963,15954.429323009173,-5681.2322951832175,-4844.114761843057,35203.416371752784,-3852.591377805636,6190.002702474917,4523.948374265239,0.0,0.0,0.0,2019-03-17T21:15:25.935839,2,EyesOpen
7513.337732951371,16167.19557847924,-5428.232899693597,-4613.489462553199,35411.64522309843,-4030.935946814531,6415.777673217974,4715.748693436229,0.0,0.0,0.0,2019-03-17T21:15:25.936495,2,EyesOpen
7488.951979750631,16176.471552428193,-5432.099751484365,-4587.695549451774,35430.37598495197,-3658.466477211294,6431.580356547875,4781.842801790572,0.0,0.0,0.0,2019-03-17T21:15:25.943069,2,EyesOpen
7245.832055310257,15965.20286383663,-5692.8552022999775,-4815.593935918086,35216.40273528132,-3435.0384396360446,6200.5974293467325,4596.435081533799,0.0,0.0,0.0,2019-03-17T21:15:25.943832,2,EyesOpen
7236.869005783678,15931.027046564466,-5721.599545669502,-4866.265340598266,35171.72159811516,-3767.654748875469,6154.731649724442,4511.923135748284,0.0,0.0,0.0,2019-03-17T21:15:25.950567,2,EyesOpen
7462.755735249011,16113.819612719968,-5484.626350954336,-4660.249311953701,35360.97381841824,-4047.99032783393,6357.931358567639,4671.425184181355,0.0,0.0,0.0,2019-03-17T21:15:25.951482,2,EyesOpen
7508.9344392936755,16173.789343093556,-5415.313591398429,-4573.681005678297,35440.88130484597,-3740.4750276178156,6435.067228682903,4786.7825373151945,-0.018000000000000002,1.002,0.254,2019-03-17T21:15:25.957789,2,EyesOpen
7296.011721612421,15994.327186861896,-5639.725105729712,-4762.08385969208,35266.31418065002,-3415.190090559732,6239.288298998868,4646.413582135866,0.0,0.0,0.0,2019-03-17T21:15:25.965565,2,EyesOpen
7234.276203426863,15915.045549278922,-5724.482920704237,-4866.019471409259,35173.88971732732,-3670.8493436395343,6140.672402462054,4521.824958541984,0.0,0.0,0.0,2019-03-17T21:15:25.966444,2,EyesOpen
7422.299077784905,16085.723469939647,-5520.076217660453,-4700.97419035127,35331.13423957041,-4036.590938161724,6307.282305631913,4634.8130267635615,0.0,0.0,0.0,2019-03-17T21:15:25.972569,2,EyesOpen
7511.616648628313,16190.553151435037,-5406.730521527591,-4577.436098746789,35439.49549668974,-3832.161883373485,6421.0079814205155,4771.449240618854,0.0,0.0,0.0,2019-03-17T21:15:25.973295,2,EyesOpen
7341.296355878873,16047.479635176616,-5593.3005324960395,-4725.114074363002,35299.77474209962,-3433.4738175241732,6264.8139911668295,4678.756556362696,0.0,0.0,0.0,2019-03-17T21:15:25.980207,2,EyesOpen
7217.780616018846,15910.374034687762,-5738.475112733258,-4880.145773905012,35160.79159507652,-3600.575459072049,6115.727855649931,4521.84731028644,0.0,0.0,0.0,2019-03-17T21:15:25.981149,2,EyesOpen
