eeg1,eeg2,eeg3,eeg4,eeg5,eeg6,eeg7,eeg8,accx,accy,accz,iso_utc,session_id,command_name
0.0,0.0,0.0,0.0,0.0,0.0,0.0,0.0,0.012,1.026,0.17200000000000001,2019-03-17T21:30:51.043426,20,EyesOpen
-19981.118438377194,-8412.391950177187,7834.778169963142,4278.660330612699,23482.36274508986,16042.785768841002,7237.561909861793,11589.848886710273,0.0,0.0,0.0,2019-03-17T21:30:51.065718,20,EyesOpen
-19891.197370433496,-8319.922783365582,7935.740999667764,4375.041052703983,23587.415944029803,15962.319488801897,7337.317745365828,11663.676698646153,0.0,0.0,0.0,2019-03-17T21:30:51.066550,20,EyesOpen
-19968.735571948957,-8391.738938300483,7970.877941951507,4593.797575688073,23494.544445818003,16471.5369309827,7274.15171553513,11836.500386774587,0.0,0.0,0.0,2019-03-17T21:30:51.072867,20,EyesOpen
-20065.7868463739,-8494.087576161335,7876.106545461005,4524.976554510183,23376.594290327346,16619.32666532119,7165.812810160257,11785.80663034995,0.0,0.0,0.0,2019-03-17T21:30:51.073394,20,EyesOpen
-20003.179610154584,-8452.289814029911,7824.541071002612,4287.489269672546,23454.60187847637,16126.47070008167,7218.04883695231,11607.372654363235,0.0,0.0,0.0,2019-03-17T21:30:51.080434,20,EyesOpen
-19894.30426291278,-8335.747818439939,7918.507804692723,4322.76032242302,23585.58310098447,15918.57712490286,7338.345925610773,11638.910965789672,0.0,0.0,0.0,2019-03-17T21:30:51.080936,20,EyesOpen
-19943.23223152545,-8369.208379889535,7980.757413000752,4557.028956059094,23524.02639675455,16383.761630506711,7304.058349616332,11822.284677301011,0.0,0.0,0.0,2019-03-17T21:30:51.088385,20,EyesOpen
-20056.30970672485,-8480.162439365678,7907.935429565362,4557.475990948199,23392.642842846257,16659.716267551932,7190.243266849908,11821.703531945173,0.006,1.022,0.166,2019-03-17T21:30:51.088998,20,EyesOpen
-20025.19607844306,-8459.464724000063,7829.100826871494,4311.338581006358,23429.903200853256,16228.417006542328,7206.090653668721,11633.658305842675,0.0,0.0,0.0,2019-03-17T21:30:51.096459,20,EyesOpen
-19907.357681674683,-8328.12587358068,7900.402891683923,4283.823583581875,23571.792074655543,15904.070842751365,7327.237108616485,11615.106357944771,0.0,0.0,0.0,2019-03-17T21:30:51.097019,20,EyesOpen
-19925.440242939025,-8346.051972633835,7981.0479856786715,4514.270068916091,23549.485033689147,16292.097126495497,7325.694838249068,11798.725938645119,0.0,0.0,0.0,2019-03-17T21:30:51.102752,20,EyesOpen
-20039.21062221654,-8472.2499218285,7916.5184994362,4572.116383566426,23406.143296497263,16667.472322877922,7206.671799024559,11846.11163689037,0.0,0.0,0.0,2019-03-17T21:30:51.103350,20,EyesOpen
-20027.140680210672,-8468.226607826544,7823.423483779846,4346.676688990198,23410.613645388323,16332.33026651505,7193.886601196123,11673.399707484212,0.0,0.0,0.0,2019-03-17T21:30:51.109856,20,EyesOpen
-19919.56173414728,-8351.282280836378,7866.204722667304,4251.994699477518,23549.105054033407,15906.373072430262,7311.032093886387,11602.701139772074,0.0,0.0,0.0,2019-03-17T21:30:51.117700,20,EyesOpen
-19909.12346948665,-8337.98299288547,7962.876017436507,4467.2867020710355,23568.305202520514,16194.084727058975,7343.598585557769,11774.675461611208,0.0,0.0,0.0,2019-03-17T21:30:51.118096,20,EyesOpen
-20025.643113332168,-8449.76406690646,7937.28327003518,4591.629456475908,23434.328846255405,16657.302279150757,7233.493892370927,11871.972605225159,0.0,0.0,0.0,2019-03-17T21:30:51.126031,20,EyesOpen
-20057.87432883672,-8476.764974208472,7833.191196106815,4391.111956967349,23393.805133557933,16431.10262526305,7182.3307493127295,11715.756263227018,0.0,0.0,0.0,2019-03-17T21:30:51.126641,20,EyesOpen
-19940.81824312428,-8357.294900094856,7850.402039337402,4245.803266263398,23526.03805375553,15937.196128034131,7284.835849384767,11602.63408453871,-0.004,1.028,0.162,2019-03-17T21:30:51.132701,20,EyesOpen
-19907.71530958597,-8314.759530396406,7944.636993960977,4420.571556159443,23568.551071709524,16091.870199664856,7335.797826742867,11737.482158837576,0.0,0.0,0.0,2019-03-17T21:30:51.133348,20,EyesOpen
-20008.499325334946,-8413.844813566782,7939.719610180809,4591.249476820169,23442.464881237138,16607.81551692671,7239.19358720703,11869.759782524085,0.0,0.0,0.0,2019-03-17T21:30:51.140553,20,EyesOpen
-20065.49627369598,-8478.262541086977,7834.532300774134,4432.529739443033,23371.453389102626,16512.954713458385,7164.583464215215,11743.830054262884,0.0,0.0,0.0,2019-03-17T21:30:51.141038,20,EyesOpen
-19968.75792369341,-8384.876952752704,7823.155262846382,4242.092876683817,23489.157675404273,15984.939454190668,7255.555064148315,11595.839154224295,0.0,0.0,0.0,2019-03-17T21:30:51.148699,20,EyesOpen
-19895.868885024654,-8310.803271627818,7930.309525765125,4380.4725266066225,23574.116656078895,16015.31547490543,7342.190425657085,11702.32286480938,0.0,0.0,0.0,2019-03-17T21:30:51.149328,20,EyesOpen
-19979.687926732055,-8394.08587146829,7954.270595821214,4588.5002122521655,23472.08094264042,16545.23063245185,7266.954453820522,11866.272910389056,0.0,0.0,0.0,2019-03-17T21:30:51.155790,20,EyesOpen
-20063.574023672823,-8482.084689388836,7848.2115683807815,4479.021367910072,23369.8664152463,16583.273301514782,7168.56207472826,11779.257569224546,0.0,0.0,0.0,2019-03-17T21:30:51.156478,20,EyesOpen
-19992.987214682962,-8402.624237850217,7811.130024329427,4257.649690824711,23463.07318962493,16056.688553892203,7236.220805194474,11609.786642764408,0.0,0.0,0.0,2019-03-17T21:30:51.163422,20,EyesOpen
-19906.70948108548,-8320.101597321225,7907.0860632760605,4338.406543541735,23572.216757800194,15944.192224048642,7340.044658189376,11672.103306305804,0.0,0.0,0.0,2019-03-17T21:30:51.164068,20,EyesOpen
-19967.193301581538,-8381.881818995693,7955.678755721898,4574.195095800769,23497.405469108282,16454.437846474393,7293.06129134432,11857.1981021402,-0.006,1.028,0.152,2019-03-17T21:30:51.170496,20,EyesOpen
-20062.6352504057,-8476.094421874812,7867.076440701061,4532.576147624987,23378.315374650407,16630.43548231548,7187.8516301931895,11822.843470912394,0.0,0.0,0.0,2019-03-17T21:30:51.179710,20,EyesOpen
-20012.54499108136,-8426.250031739477,7803.105748069972,4295.781766865464,23441.548459714468,16147.10136021392,7228.129473701653,11639.693276845608,0.0,0.0,0.0,2019-03-17T21:30:51.180301,20,EyesOpen
-19899.69103332651,-8307.875193104172,7891.03751075715,4317.641772942755,23575.636574701857,15914.53145915645,7347.756010026456,11659.519274177466,0.0,0.0,0.0,2019-03-17T21:30:51.186113,20,EyesOpen
-19948.462539727992,-8358.680708251084,7955.030555132695,4551.061040289526,23523.17703046525,16361.655755240412,7321.380951569195,11842.669468244252,0.0,0.0,0.0,2019-03-17T21:30:51.186836,20,EyesOpen
-20059.193081759582,-8481.123564377256,7882.186219952849,4564.874418362906,23388.6195288443,16659.157473940548,7204.771900745857,11853.420657327255,0.0,0.0,0.0,2019-03-17T21:30:51.193003,20,EyesOpen
-20027.699473822056,-8456.268424542955,7807.218469049749,4335.009078384528,23423.9799885726,16251.036971931098,7217.937078230033,11672.796210383918,0.0,0.0,0.0,2019-03-17T21:30:51.193632,20,EyesOpen
-19915.203143978495,-8343.883853421672,7864.818914511075,4286.394034194235,23557.241089015137,15890.726851311549,7328.868785961722,11634.038285498416,0.0,0.0,0.0,2019-03-17T21:30:51.201362,20,EyesOpen
-19927.071920284263,-8352.109295381224,7948.794418429664,4516.1252637058815,23541.259591729595,16252.758056254157,7331.193367385074,11808.203078294167,0.0,0.0,0.0,2019-03-17T21:30:51.202452,20,EyesOpen
-20036.662523348634,-8458.213026310566,7908.13659526546,4597.753834456663,23410.747755855056,16658.218700673428,7223.323848643762,11868.239863901123,0.0,0.0,0.0,2019-03-17T21:30:51.208041,20,EyesOpen
-20041.557555384345,-8465.879674658738,7816.561498232067,4377.9467794831735,23406.143296497263,16340.868632896976,7201.799118733302,11694.946789139127,-0.002,1.028,0.152,2019-03-17T21:30:51.208789,20,EyesOpen
-19925.775519105857,-8342.319231309799,7855.453533584301,4274.502906144012,23545.84169934293,15896.068918236366,7312.864936931723,11611.083043942815,0.0,0.0,0.0,2019-03-17T21:30:51.215485,20,EyesOpen
-19906.50831538538,-8316.681780419562,7954.225892332303,4484.184620879248,23567.120560064384,16155.729133573668,7346.92899548161,11770.89801679826,0.0,0.0,0.0,2019-03-17T21:30:51.215839,20,EyesOpen
-20015.33895913827,-8433.693162643094,7926.800301885642,4613.802386975573,23429.858497364345,16632.357732338634,7234.589127849237,11869.089230190424,0.0,0.0,0.0,2019-03-17T21:30:51.223410,20,EyesOpen
-20050.274735721916,-8476.38499455273,7824.3175535580585,4423.3208207274465,23388.887749777765,16439.439825944883,7187.270484837352,11720.092501651348,0.0,0.0,0.0,2019-03-17T21:30:51.223714,20,EyesOpen
-19950.51890021788,-8371.711775268528,7835.9404606748185,4264.824600794864,23518.013777496075,15932.412854720695,7291.340207021261,11598.186087392103,0.0,0.0,0.0,2019-03-17T21:30:51.230702,20,EyesOpen
-19893.36548964566,-8315.295972263333,7945.598118972554,4441.291623269513,23580.57631022648,16072.781809900023,7360.295338665884,11739.829092005384,0.0,0.0,0.0,2019-03-17T21:30:51.239034,20,EyesOpen
-19984.024165156385,-8404.94881927357,7953.331822554091,4626.72169527074,23464.771922203534,16599.09833658914,7271.53656143386,11887.618826343874,0.0,0.0,0.0,2019-03-17T21:30:51.239602,20,EyesOpen
-20051.77230260042,-8473.0992881178,7845.484655557234,4478.1496498763145,23383.612738086314,16534.65825732449,7190.064452894266,11773.066136010426,0.0,0.0,0.0,2019-03-17T21:30:51.245737,20,EyesOpen
-19959.638411955646,-8383.401737618655,7824.116387857961,4277.319225945381,23495.282053385028,16001.435041598683,7275.939855091555,11620.649590569687,0.0,0.0,0.0,2019-03-17T21:30:51.246370,20,EyesOpen
-19885.49767559739,-8306.93641983705,7927.42615073039,4401.751387328075,23589.025269630583,15998.775184008502,7369.504257381471,11720.874812707283,0.002,1.028,0.15,2019-03-17T21:30:51.253076,20,EyesOpen
-19980.42553429908,-8403.294790183878,7948.481494007289,4601.307761825056,23482.9438904457,16515.100480926096,7293.888305889167,11883.39434664182,0.0,0.0,0.0,2019-03-17T21:30:51.253582,20,EyesOpen
-20081.008384347962,-8505.665779789184,7839.047353154106,4489.392577337334,23368.52531057898,16578.80295262372,7187.6728162375475,11798.949456089671,0.0,0.0,0.0,2019-03-17T21:30:51.261337,20,EyesOpen
-20015.58482832728,-8441.180997035623,7794.410919476858,4255.3251094013585,23455.138320343296,16057.157940525763,7248.089581500242,11619.263782413458,0.0,0.0,0.0,2019-03-17T21:30:51.262035,20,EyesOpen
-19911.202181720993,-8340.50874000892,7891.506897390712,4324.704924190632,23572.172054311282,15922.24281099353,7356.093210708286,11672.438582472632,0.0,0.0,0.0,2019-03-17T21:30:51.268059,20,EyesOpen
-19972.200092339528,-8390.75546154445,7942.781799171186,4557.073659548004,23497.003137708085,16424.642971115467,7307.9252014071,11852.034849171025,0.0,0.0,0.0,2019-03-17T21:30:51.268821,20,EyesOpen
-20079.488465725,-8493.551134294406,7859.208626652793,4524.238946943158,23372.839197258854,16632.827118972196,7193.886601196123,11821.904697645272,0.0,0.0,0.0,2019-03-17T21:30:51.275786,20,EyesOpen
-20028.839412789275,-8462.236340312522,7793.807422376564,4283.533010903956,23428.383282230294,16159.57363361998,7224.933174244545,11632.92069827565,0.0,0.0,0.0,2019-03-17T21:30:51.276315,20,EyesOpen
-19902.283835683327,-8345.716696467007,7881.135687963449,4292.965447064095,23565.75710365261,15899.1534589712,7347.398382115171,11641.414361168667,0.0,0.0,0.0,2019-03-17T21:30:51.283732,20,EyesOpen
-19936.683170400047,-8366.41441183262,7954.561168499133,4526.898804533339,23524.339321176925,16333.581964204546,7327.9076609501435,11825.480976758121,0.0,0.0,0.0,2019-03-17T21:30:51.283968,20,EyesOpen
-20052.688724123087,-8478.553113764896,7886.388347910446,4549.563473411021,23388.15014221074,16654.5306628383,7207.18588914703,11842.602413010885,0.0,1.028,0.146,2019-03-17T21:30:51.290795,20,EyesOpen
-20038.696532094065,-8476.876732930748,7799.395358490391,4305.437720470157,23405.20452323014,16255.060285933054,7200.860345466179,11652.836102585328,0.0,0.0,0.0,2019-03-17T21:30:51.297319,20,EyesOpen
-19932.99513256492,-8360.98293792998,7859.543902819622,4245.847969752308,23546.42284469877,15876.600548815793,7320.844509702267,11607.015026451949,0.0,0.0,0.0,2019-03-17T21:30:51.298018,20,EyesOpen
-19925.149670261108,-8349.918824424603,7959.545607512666,4484.0728621569715,23553.731865135655,16227.92526816431,7346.169036170129,11792.802726364462,0.0,0.0,0.0,2019-03-17T21:30:51.305377,20,EyesOpen
-20045.714979853034,-8470.752354949995,7910.595287155544,4570.730575410196,23410.948921555155,16641.454892331945,7227.056589967799,11858.472151574153,0.0,0.0,0.0,2019-03-17T21:30:51.306062,20,EyesOpen
-20058.477825937014,-8486.510334790986,7811.800576663087,4352.778715226497,23392.95576726863,16348.647039967424,7196.457051808483,11687.302492535413,0.0,0.0,0.0,2019-03-17T21:30:51.313585,20,EyesOpen
-19929.12828077415,-8356.154961127635,7854.492408572723,4245.780914518942,23539.56085915099,15895.554828113894,7321.000971913454,11608.691407286098,0.0,0.0,0.0,2019-03-17T21:30:51.314467,20,EyesOpen
-19903.244960694905,-8325.93540262406,7956.14814235546,4450.701707685198,23570.27215603258,16129.599944305415,7366.5314753689145,11770.294519697967,0.0,0.0,0.0,2019-03-17T21:30:51.320299,20,EyesOpen
-20023.20677318654,-8452.111000074268,7933.125845566493,4590.176593086314,23433.993570088576,16615.750386208343,7256.739706604446,11880.510971607086,0.0,0.0,0.0,2019-03-17T21:30:51.320969,20,EyesOpen
-20069.966622587042,-8501.977741954059,7823.512890757667,4403.316009439946,23377.510711850013,16443.64195390248,7193.081938395731,11734.285859380469,0.0,0.0,0.0,2019-03-17T21:30:51.328386,20,EyesOpen
-19958.967859621986,-8395.80695579135,7828.273812326648,4240.684716783133,23505.765021534567,15929.44007270814,7293.888305889167,11603.14817466118,-0.004,1.026,0.148,2019-03-17T21:30:51.329051,20,EyesOpen
-19891.823219278245,-8331.053952104325,7936.366848512513,4410.245050221092,23575.86009214641,16040.8858705623,7367.827876547322,11734.621135547297,0.0,0.0,0.0,2019-03-17T21:30:51.337761,20,EyesOpen
-19989.500342547937,-8423.94780206058,7942.938261382373,4600.190174602291,23454.847747665375,16568.18587400745,7277.795049881345,11883.707271064195,0.0,0.0,0.0,2019-03-17T21:30:51.338708,20,EyesOpen
-20069.519587697934,-8501.307189620398,7832.677105984343,4458.077783355449,23363.00442969852,16528.712693299378,7186.37641505914,11769.869836553316,0.0,0.0,0.0,2019-03-17T21:30:51.343837,20,EyesOpen
-19974.971708651985,-8401.059615738346,7817.388512776914,4257.0908972133275,23476.21601536465,16002.373814865807,7272.654148656625,11615.82161376734,0.0,0.0,0.0,2019-03-17T21:30:51.344479,20,EyesOpen
-19893.410193134572,-8318.849899631727,7922.374656483491,4372.358843369347,23576.173016568784,15971.93073891768,7369.79483005939,11704.60274274382,0.0,0.0,0.0,2019-03-17T21:30:51.350169,20,EyesOpen
-19972.445961528538,-8400.746691315971,7955.142313854971,4589.059005863548,23480.753419489076,16491.45233529238,7302.270210059907,11869.580968568442,0.0,0.0,0.0,2019-03-17T21:30:51.350854,20,EyesOpen
-20069.653698164668,-8502.469480332074,7852.950138205307,4502.848327499429,23366.357191366817,16587.609539939112,7194.937133185522,11797.921275844727,0.0,0.0,0.0,2019-03-17T21:30:51.357995,20,EyesOpen
-20006.91235147862,-8442.231529025023,7802.099919569483,4264.019937994473,23444.610648704846,16068.780847642523,7245.139151232142,11610.233677653514,0.0,0.0,0.0,2019-03-17T21:30:51.365808,20,EyesOpen
-19897.478210625435,-8329.64579220364,7899.508821905712,4319.832243899375,23566.7629321531,15902.461517150585,7356.517893852937,11652.679640374141,0.0,0.0,0.0,2019-03-17T21:30:51.366534,20,EyesOpen
-19952.53055721886,-8376.115068926223,7956.304604566647,4557.699508392752,23500.624120309847,16390.042470698652,7318.16230036763,11835.449854785187,-0.006,1.03,0.14400000000000002,2019-03-17T21:30:51.372943,20,EyesOpen
-20059.058971292852,-8491.338311593332,7868.395193623924,4534.18547322577,23369.888766990756,16619.23725834337,7201.083862910732,11814.48391848611,0.0,0.0,0.0,2019-03-17T21:30:51.373734,20,EyesOpen
-20010.220409658006,-8456.67075594315,7799.775338146132,4294.194793009137,23419.152011770253,16163.753409833123,7226.833072523245,11627.958611006572,0.0,0.0,0.0,2019-03-17T21:30:51.381835,20,EyesOpen
-19893.834876279223,-8341.715734209507,7880.532190863156,4288.495098173034,23560.05740881651,15876.913473238168,7349.499446093971,11627.980962751028,0.0,0.0,0.0,2019-03-17T21:30:51.382477,20,EyesOpen
-19928.681245885044,-8356.914920439116,7960.506732524244,4525.669458588298,23525.166335721773,16296.165143986362,7336.69189652108,11817.456700498666,0.0,0.0,0.0,2019-03-17T21:30:51.388516,20,EyesOpen
-20039.43413966109,-8471.691128217117,7894.70319684782,4567.266055019624,23389.334784666873,16642.48307257689,7217.1994706630085,11854.001802683093,0.0,0.0,0.0,2019-03-17T21:30:51.389358,20,EyesOpen
-20031.05223549035,-8473.72513696255,7799.261248023659,4327.454188758635,23396.01795625901,16260.536463324603,7203.81077573428,11669.465800460077,0.0,0.0,0.0,2019-03-17T21:30:51.396555,20,EyesOpen
-19911.35864393218,-8349.672955235596,7855.721754517765,4260.89069377073,23539.247934728617,15867.23516788902,7327.326515594306,11624.941125505105,0.0,0.0,0.0,2019-03-17T21:30:51.397373,20,EyesOpen
-19904.02727175084,-8346.029620889381,7953.28711906518,4490.823088982474,23547.674542388268,16200.857305628933,7354.372126385228,11808.270133527534,0.0,0.0,0.0,2019-03-17T21:30:51.403214,20,EyesOpen
-20020.412805129625,-8465.164418836168,7910.8411563445525,4589.506040752654,23406.7244418531,16639.28677311978,7237.271337183874,11886.2553699321,0.0,0.0,0.0,2019-03-17T21:30:51.403861,20,EyesOpen
-20050.945288055576,-8489.125488892256,7804.044521337095,4369.833096245897,23373.53210133697,16366.036697153653,7193.037234906821,11712.26939109199,-0.006,1.032,0.148,2019-03-17T21:30:51.412709,20,EyesOpen
-19940.505318701904,-8378.014967204925,7828.385571048924,4239.142446415716,23508.93896924722,15890.503333866995,7303.8348321717785,11611.239506154003,0.0,0.0,0.0,2019-03-17T21:30:51.413343,20,EyesOpen
-19901.635635094124,-8345.627289489184,7933.327011266591,4438.944690101706,23554.357713980404,16098.866295679367,7359.1330479542075,11767.344089429867,0.0,0.0,0.0,2019-03-17T21:30:51.418890,20,EyesOpen
-20011.069775947308,-8451.10517157378,7918.0607698036165,4592.635284976397,23422.437718205183,16595.38794700956,7255.443305426038,11884.869561775871,0.0,0.0,0.0,2019-03-17T21:30:51.426614,20,EyesOpen
-20063.417561461636,-8503.654122788206,7811.845280151997,4419.833948592419,23361.6633250312,16453.633183674,7188.969217415955,11744.679420552186,0.0,0.0,0.0,2019-03-17T21:30:51.427075,20,EyesOpen
-19960.621888711677,-8399.47264188202,7814.9298208868295,4249.133676187239,23486.90014921429,15930.49060469754,7282.48891621696,11605.092776428794,0.0,0.0,0.0,2019-03-17T21:30:51.432784,20,EyesOpen
-19891.242073922407,-8327.567079969296,7931.650630432443,4409.842718820896,23566.539414708546,16007.470012601616,7363.804562545367,11725.859251720816,0.0,0.0,0.0,2019-03-17T21:30:51.433166,20,EyesOpen
-19975.75401970792,-8419.56686014734,7949.442619018868,4606.426311305322,23453.238422064594,16534.792367791222,7278.465602215005,11877.851114016905,0.0,0.0,0.0,2019-03-17T21:30:51.440477,20,EyesOpen
-20044.999724030462,-8500.368416353276,7842.511873544679,4472.4052515513,23362.33387736486,16518.520297827756,7182.04017663481,11769.199284219658,0.0,0.0,0.0,2019-03-17T21:30:51.440864,20,EyesOpen
-19979.8667406877,-8414.403607178165,7812.269963296648,4252.106458199794,23460.100407612375,15975.551721519438,7249.296575700829,11595.481526313011,0.0,0.0,0.0,2019-03-17T21:30:51.448549,20,EyesOpen
-19894.88540826862,-8322.716751422495,7915.80324361363,4354.343337338369,23564.95244085222,15916.230191735052,7350.304108894362,11676.84187613033,0.0,1.028,0.14400000000000002,2019-03-17T21:30:51.448974,20,EyesOpen
-19965.338106791747,-8392.677711567607,7959.187979601381,4581.213543559736,23481.64748926729,16440.423302700914,7296.257590801429,11859.455628330188,0.0,0.0,0.0,2019-03-17T21:30:51.455173,20,EyesOpen
-20059.59541315978,-8504.995227455525,7859.767420264176,4506.290496145546,23364.56905181039,16563.179083249463,7184.923551669544,11802.235162524601,0.0,0.0,0.0,2019-03-17T21:30:51.455646,20,EyesOpen
-19998.552799052337,-8456.603700709784,7797.49546021169,4265.562208361889,23434.932343355697,16052.642888145792,7230.588165591737,11617.453291112577,0.0,0.0,0.0,2019-03-17T21:30:51.463566,20,EyesOpen
-19903.826106050743,-8342.051010376335,7886.813031055097,4306.354141992824,23558.47043496018,15859.859092218769,7343.129198924208,11649.706858361586,0.0,0.0,0.0,2019-03-17T21:30:51.464212,20,EyesOpen
-19944.148653048116,-8376.785621259884,7957.422191789412,4550.0552117890375,23507.284940157526,16342.857938153498,7314.630724743692,11842.714171733161,0.0,0.0,0.0,2019-03-17T21:30:51.471495,20,EyesOpen
-20050.006514788452,-8492.902933705203,7881.292150174636,4545.13782800887,23376.750752538534,16601.95935987942,7199.787461732324,11837.796787952995,0.0,0.0,0.0,2019-03-17T21:30:51.472133,20,EyesOpen
-20015.897752749654,-8465.991433381014,7805.318570771047,4304.677761158677,23418.168535014218,16160.780627820568,7219.658162553092,11650.10918976178,0.0,0.0,0.0,2019-03-17T21:30:51.478729,20,EyesOpen
-19902.820277550254,-8352.55633027033,7871.636196569943,4280.336711446847,23552.144891279328,15843.56467051085,7335.462550576038,11632.026628497439,0.0,0.0,0.0,2019-03-17T21:30:51.485074,20,EyesOpen
-19918.6006091357,-8364.045126920359,7953.912967909929,4517.265202673102,23530.441347413227,16248.935907952298,7334.233204630996,11819.155433077269,0.0,0.0,0.0,2019-03-17T21:30:51.485845,20,EyesOpen
-20039.657657105643,-8480.408308554686,7888.578818867067,4561.275787505601,23387.479589877083,16607.502592504334,7210.6280577931475,11852.3477735934,-0.002,1.026,0.146,2019-03-17T21:30:51.493055,20,EyesOpen
-20046.698456609065,-8482.330558577843,7790.119384541439,4322.447398000646,23387.39018289926,16241.515128793137,7190.265618594363,11659.385163710735,0.0,0.0,0.0,2019-03-17T21:30:51.493825,20,EyesOpen
-19932.257524997895,-8364.693327509562,7837.683896742332,4238.404838848691,23526.663902600278,15824.632742957205,7305.868840917211,11591.234694866502,0.0,0.0,0.0,2019-03-17T21:30:51.501141,20,EyesOpen
-19911.13512648763,-8353.003365159437,7940.144293325459,4462.995167135617,23542.444234185725,16132.751540273614,7338.301222121861,11769.378098175299,0.0,0.0,0.0,2019-03-17T21:30:51.501775,20,EyesOpen
-20023.117366208717,-8464.739735691517,7908.5165749212,4580.81121215954,23410.233665732583,16585.597882938135,7230.498758613916,11859.63444228583,0.0,0.0,0.0,2019-03-17T21:30:51.508293,20,EyesOpen
-20052.979296801008,-8492.366491838276,7803.977466103729,4374.459907348145,23377.421304872194,16342.165034075384,7186.4434702925055,11698.4113095297,0.0,0.0,0.0,2019-03-17T21:30:51.508995,20,EyesOpen
-19937.51018494489,-8378.238484649479,7830.866614683464,4236.907271970185,23515.577437350446,15855.94753693909,7297.553991979837,11592.262875111446,0.0,0.0,0.0,2019-03-17T21:30:51.515827,20,EyesOpen
-19892.31495765626,-8334.160844583612,7938.467912491312,4424.550166672489,23562.225528028674,16034.426216414717,7353.947443240577,11739.382057116278,0.0,0.0,0.0,2019-03-17T21:30:51.516843,20,EyesOpen
-19997.926950207588,-8445.606642437773,7919.848909360041,4578.330168525001,23429.456165964148,16536.044065480717,7250.592976879237,11862.115485920369,0.0,0.0,0.0,2019-03-17T21:30:51.523951,20,EyesOpen
-20062.702305639068,-8518.11570145079,7804.111576570461,4403.830099562419,23357.505900562515,16416.10460473354,7172.093650352198,11724.138167397758,0.0,0.0,0.0,2019-03-17T21:30:51.524656,20,EyesOpen
-19961.985345123452,-8412.28019145491,7799.909448612863,4222.646859007699,23483.12270440134,15895.040737991421,7268.317910232296,11585.110316885748,0.002,1.026,0.148,2019-03-17T21:30:51.531854,20,EyesOpen
-19890.83974252221,-8337.22303357399,7906.169641753393,4365.541561310478,23561.84554837293,15943.29815427043,7347.934823982099,11697.31607405139,0.0,0.0,0.0,2019-03-17T21:30:51.532501,20,EyesOpen
-19984.180627367572,-8425.959459061558,7927.560261197122,4567.109592808437,23451.763206930544,16472.02866936072,7266.060384042309,11854.292375361012,0.0,0.0,0.0,2019-03-17T21:30:51.538220,20,EyesOpen
-20063.618727161735,-8502.49183207653,7831.961850161773,4457.027251366049,23361.23864188655,16497.040271406207,7177.3463102991955,11765.08656323988,0.0,0.0,0.0,2019-03-17T21:30:51.546653,20,EyesOpen
-19982.258377344417,-8416.2364502235,7799.484765468213,4237.756638259487,23460.79331169049,15964.197035336143,7249.184816978553,11596.263837368946,0.0,0.0,0.0,2019-03-17T21:30:51.547532,20,EyesOpen
-19893.99133849041,-8335.099617850736,7900.201725983826,4325.71075269112,23567.299374020025,15873.784229014425,7349.700611794068,11667.275329503456,0.0,0.0,0.0,2019-03-17T21:30:51.553327,20,EyesOpen
-19955.61509795369,-8406.602848363264,7945.3522497835465,4549.4070111998335,23483.83796022391,16387.807296253122,7294.4470995005495,11846.044581657003,0.0,0.0,0.0,2019-03-17T21:30:51.553982,20,EyesOpen
-20054.409808446148,-8502.536535565441,7849.664431770377,4488.207934881203,23361.6633250312,16545.096521985117,7183.560095257771,11798.055386311458,0.0,0.0,0.0,2019-03-17T21:30:51.561480,20,EyesOpen
-20008.789898012867,-8448.288851772411,7781.782183859609,4244.193940662616,23421.320130982414,16045.043295030988,7221.803930020801,11609.741939275496,0.0,0.0,0.0,2019-03-17T21:30:51.562205,20,EyesOpen
-19892.538475100813,-8335.725466695485,7869.132801190949,4275.7546038335095,23550.33439997845,15824.27511504592,7338.144759910675,11634.507672131977,0.0,0.0,0.0,2019-03-17T21:30:51.567964,20,EyesOpen
-19922.668626626568,-8372.762307257928,7939.004354358239,4520.573260852488,23504.870951756355,16292.633568362424,7314.809538699334,11827.514985503554,-0.002,1.026,0.154,2019-03-17T21:30:51.568604,20,EyesOpen
-20043.658619363145,-8484.92336093466,7865.534170333644,4528.463426645211,23375.47670310458,16572.94679557643,7202.447319322506,11833.86288092886,0.0,0.0,0.0,2019-03-17T21:30:51.576081,20,EyesOpen
-20029.129985467196,-8472.115811361768,7779.837582091997,4276.626321867267,23401.248264461552,16131.455139095206,7209.286953125829,11639.872090801251,0.0,0.0,0.0,2019-03-17T21:30:51.576757,20,EyesOpen
-19908.296454941807,-8355.015022160414,7848.390382336424,4241.8246557503535,23539.784376595544,15791.306291974342,7329.516986550926,11613.944067233095,0.0,0.0,0.0,2019-03-17T21:30:51.585586,20,EyesOpen
-19921.528687659345,-8357.429010561587,7935.3163165231135,4477.300283587013,23521.970036264665,16176.20333149473,7331.729809252001,11794.657921154252,0.0,0.0,0.0,2019-03-17T21:30:51.586362,20,EyesOpen
-20045.916145553132,-8468.718346204561,7874.340757649035,4540.779237840085,23375.968441482597,16559.200472736415,7206.895316469111,11839.339058320411,0.0,0.0,0.0,2019-03-17T21:30:51.591749,20,EyesOpen
-20044.418578674624,-8476.92143641966,7782.184515259804,4319.206395054626,23378.225967672584,16230.361608309939,7191.539668028316,11665.889521347228,0.0,0.0,0.0,2019-03-17T21:30:51.592594,20,EyesOpen
-19923.383882449136,-8374.37163285871,7822.4400070238125,4225.843158464809,23516.002120495097,15798.592960666772,7305.108881605731,11592.24052336699,0.0,0.0,0.0,2019-03-17T21:30:51.597892,20,EyesOpen
-19902.37324266115,-8344.442647033055,7928.677848419888,4445.06906808246,23545.752292365112,16083.04126060501,7347.420733859627,11764.058382994937,0.0,0.0,0.0,2019-03-17T21:30:51.598884,20,EyesOpen
-20018.781127784387,-8452.446276241097,7899.285304461158,4561.923988094805,23407.9761395426,16552.539652888736,7238.925366273566,11860.327346363943,0.0,0.0,0.0,2019-03-17T21:30:51.605797,20,EyesOpen
-20057.092017780786,-8498.848497730314,7787.97361707373,4355.5279797945,23361.573918053382,16331.391493247927,7184.364758058162,11701.562905497898,-0.002,1.028,0.156,2019-03-17T21:30:51.613549,20,EyesOpen
-19948.842519383732,-8396.902191269659,7801.541125958101,4201.949143642085,23490.655242282777,15830.153623837665,7284.724090662491,11583.612750007243,0.0,0.0,0.0,2019-03-17T21:30:51.614199,20,EyesOpen
-19894.281911168327,-8340.352277797732,7909.365941210502,4381.031320218006,23546.065216787483,15987.554608291937,7348.560672826848,11723.735835997562,0.0,0.0,0.0,2019-03-17T21:30:51.620077,20,EyesOpen
-19992.786048982867,-8443.036191825413,7903.979170796772,4551.239854245169,23419.084956536884,16505.377472088036,7253.096372258231,11858.293337618512,0.0,0.0,0.0,2019-03-17T21:30:51.620719,20,EyesOpen
-20054.141587512684,-8504.034102443946,7799.887096868408,4392.229544190114,23346.66530450169,16421.02198851371,7181.459031278972,11737.70567628213,0.0,0.0,0.0,2019-03-17T21:30:51.628265,20,EyesOpen
-19972.580071995268,-8410.08972049829,7784.620855405433,4194.416605760647,23459.809834934455,15885.183618686631,7267.692061387546,11585.557351774854,0.0,0.0,0.0,2019-03-17T21:30:51.628902,20,EyesOpen
-19894.661890824067,-8325.845995646237,7894.837307314552,4332.349220794346,23548.859184844398,15905.858982307791,7355.199140930074,11690.69995769262,0.0,0.0,0.0,2019-03-17T21:30:51.636224,20,EyesOpen
-19978.078601131274,-8411.609639121252,7919.535984937666,4543.215577985714,23443.090730081884,16435.86354683203,7277.7726981368905,11854.20296838319,0.0,0.0,0.0,2019-03-17T21:30:51.636871,20,EyesOpen
-20049.15714849915,-8490.041910414924,7823.8481669244975,4446.209007049681,23351.090949903843,16490.915893425452,7186.085842381221,11776.173028489713,0.0,0.0,0.0,2019-03-17T21:30:51.643415,20,EyesOpen
-19976.245758085937,-8423.880746827215,7777.870628579931,4216.544832771401,23437.97218060162,15959.637279467259,7247.57549137777,11596.889686213695,0.0,0.0,0.0,2019-03-17T21:30:51.644059,20,EyesOpen
-19882.23432090692,-8320.816853143795,7878.542885606634,4295.222973254082,23552.457815701702,15840.033094886912,7356.428486875116,11659.206349755092,-0.002,1.026,0.158,2019-03-17T21:30:51.651521,20,EyesOpen
-19942.159347791596,-8383.80406901885,7928.409627486423,4526.407066155322,23475.009021164064,16345.853071910511,7307.433463029082,11841.618936254852,0.0,0.0,0.0,2019-03-17T21:30:51.652159,20,EyesOpen
-20039.702360594554,-8492.29943660491,7842.109542144483,4481.122431888871,23355.226022628074,16530.769053789267,7198.133432642631,11806.95138060467,0.0,0.0,0.0,2019-03-17T21:30:51.659499,20,EyesOpen
-19997.234046129473,-8448.400610494687,7777.513000668646,4239.07539118235,23415.933360568688,16041.802292084969,7233.67270632657,11618.660285313164,0.0,0.0,0.0,2019-03-17T21:30:51.660224,20,EyesOpen
-19886.816428520255,-8331.478635248975,7863.4107546103905,4257.895560013719,23548.590963910934,15796.223675754509,7350.147646683175,11632.272497686447,0.0,0.0,0.0,2019-03-17T21:30:51.665906,20,EyesOpen
-19919.069995769263,-8360.826475718794,7929.795435642653,4498.310923375002,23500.98174822113,16247.17012014033,7325.650134760158,11816.71909293164,0.0,0.0,0.0,2019-03-17T21:30:51.672945,20,EyesOpen
-20036.57311637081,-8475.043889885414,7853.911263216885,4513.778330538074,23364.367886110293,16549.209242964895,7204.078996667743,11823.715188946151,0.0,0.0,0.0,2019-03-17T21:30:51.673735,20,EyesOpen
-20018.57996208429,-8461.789305423415,7767.3206051970255,4272.848877054319,23387.613700343813,16135.590211819437,7204.213107134475,11635.804073310384,0.0,0.0,0.0,2019-03-17T21:30:51.680713,20,EyesOpen
-19896.494733869404,-8342.051010376335,7832.319478073058,4227.005449176485,23529.83785031293,15779.459867413028,7325.02428591541,11601.091814171294,0.0,0.0,0.0,2019-03-17T21:30:51.681504,20,EyesOpen
-19913.79498407781,-8347.482484278975,7920.2288890157815,4456.69197519922,23520.114841474875,16143.994467734632,7338.480036077504,11780.62102563632,0.0,0.0,0.0,2019-03-17T21:30:51.688304,20,EyesOpen
-20025.464299376526,-8466.10319210329,7874.2737024156695,4534.699563348242,23382.85277877483,16555.154806990005,7225.491967855927,11845.664602001263,0.0,1.026,0.154,2019-03-17T21:30:51.689062,20,EyesOpen
-20031.968657013018,-8482.799945211405,7774.517866911634,4309.371627494291,23370.469912346594,16244.756131739156,7194.735967485424,11672.192713283624,0.0,0.0,0.0,2019-03-17T21:30:51.696528,20,EyesOpen
-19926.401367950602,-8371.421202590609,7804.290390526104,4196.987056373007,23507.03907096852,15793.206190253042,7307.321704306806,11587.501953542465,0.0,0.0,0.0,2019-03-17T21:30:51.697230,20,EyesOpen
-19903.535533372826,-8343.369763299199,7907.711912120809,4401.527869883522,23538.46562367268,16042.31638220744,7351.064068205842,11751.630813077785,0.0,0.0,0.0,2019-03-17T21:30:51.703239,20,EyesOpen
-20013.461412604025,-8456.536645476419,7879.615769340488,4527.479949889177,23399.884808049777,16517.805042005188,7238.634793595647,11851.699573004196,0.0,0.0,0.0,2019-03-17T21:30:51.703909,20,EyesOpen
-20048.44189267658,-8500.01078844199,7771.0756982655175,4336.618403985311,23352.09677840433,16329.201022291307,7182.75543245738,11702.79225144294,0.0,0.0,0.0,2019-03-17T21:30:51.711338,20,EyesOpen
-19942.695789658523,-8387.961493487537,7782.519791426635,4177.20576253006,23481.13339914482,15823.403397012164,7286.154602307631,11580.908188928152,0.0,0.0,0.0,2019-03-17T21:30:51.712102,20,EyesOpen
-19896.382975147128,-8333.110312594214,7889.115260733994,4344.933252922685,23540.879612073855,15946.561508960905,7350.9746612280205,11709.900106179728,0.0,0.0,0.0,2019-03-17T21:30:51.719243,20,EyesOpen
-19993.38954608316,-8431.748560875483,7893.630313113966,4525.624755099387,23421.11896528232,16467.155989069463,7258.594901394236,11850.716096248163,0.0,0.0,0.0,2019-03-17T21:30:51.720117,20,EyesOpen
-20067.84320686379,-8511.164308925188,7780.977521059218,4372.3141398804355,23330.169717093675,16401.263046415217,7165.432830504517,11726.328638354378,0.0,0.0,0.0,2019-03-17T21:30:51.727771,20,EyesOpen
-19978.23506334246,-8423.94780206058,7762.939663283785,4168.510933936946,23441.771977159024,15864.888234721213,7245.4967791434265,11565.932520143095,-0.002,1.03,0.156,2019-03-17T21:30:51.733696,20,EyesOpen
-19891.353832644683,-8329.086998592258,7873.737260548743,4299.782729122964,23543.13713826384,15858.160359640166,7343.866806491234,11665.397782969212,0.0,0.0,0.0,2019-03-17T21:30:51.734506,20,EyesOpen
-19971.149560350128,-8394.175278446111,7908.404816198924,4520.617964341398,23445.907049883255,16388.00846195322,7279.314968504306,11834.86870942935,0.0,0.0,0.0,2019-03-17T21:30:51.740797,20,EyesOpen
-20067.64204116369,-8499.854326230803,7803.083396325517,4421.867957337851,23333.18720259514,16460.226948288317,7173.479458508427,11751.89903401125,0.0,0.0,0.0,2019-03-17T21:30:51.741646,20,EyesOpen
-19991.13201989317,-8431.323877730832,7757.999927759162,4189.54392546939,23419.979026315097,15938.62663967927,7232.912747015089,11571.587511490288,0.0,0.0,0.0,2019-03-17T21:30:51.750403,20,EyesOpen
-19889.83391402172,-8325.957754368515,7850.849074226508,4250.094801198817,23535.023455026563,15790.479277429497,7338.100056421764,11622.25891617047,0.0,0.0,0.0,2019-03-17T21:30:51.751033,20,EyesOpen
-19944.10394955921,-8379.601941061252,7905.23086848627,4482.88821970084,23464.660163481258,16289.593731116502,7293.664788444614,11808.76187190555,0.0,0.0,0.0,2019-03-17T21:30:51.756609,20,EyesOpen
-20059.483654437503,-8491.49477380452,7815.175690075838,4448.332422772935,23337.769310208478,16497.353195828582,7178.195676588497,11780.285749469489,0.0,0.0,0.0,2019-03-17T21:30:51.757263,20,EyesOpen
-20011.829735258787,-8441.158645291167,7754.222482946216,4214.220251348049,23398.588406871368,16029.642943101282,7217.914726485578,11599.504840314967,0.0,0.0,0.0,2019-03-17T21:30:51.763294,20,EyesOpen
-19898.774611803845,-8326.561251468807,7830.93366991683,4215.382542059725,23528.094414245417,15758.560986347316,7333.249727874962,11600.86829672674,0.0,0.0,0.0,2019-03-17T21:30:51.763939,20,EyesOpen
-19928.41302495158,-8348.46596103501,7904.85088883053,4454.769725176064,23490.141152160308,16194.576465436992,7314.6977799770575,11787.818287350929,-0.002,1.022,0.154,2019-03-17T21:30:51.771372,20,EyesOpen
-20038.271848949415,-8458.168322821657,7841.953079933296,4492.208897138703,23356.96945869559,16528.466824110368,7200.279200110341,11815.936781875704,0.0,0.0,0.0,2019-03-17T21:30:51.772009,20,EyesOpen
-20023.743215053466,-8440.398685979688,7754.691869579777,4253.849894267309,23374.090894948353,16135.701970541713,7197.105252397687,11631.73605581952,0.0,0.0,0.0,2019-03-17T21:30:51.778787,20,EyesOpen
-19908.676434597546,-8318.827547887271,7811.062969096061,4192.427300504124,23512.60465533789,15748.905032742625,7315.860070688734,11583.746860473975,0.0,0.0,0.0,2019-03-17T21:30:51.779432,20,EyesOpen
-19912.967969532965,-8330.517510237398,7902.861583574007,4419.230451492125,23509.52011460306,16091.378461286839,7332.512120307937,11761.867912038317,0.0,0.0,0.0,2019-03-17T21:30:51.784901,20,EyesOpen
-20027.431252888593,-8454.01089835297,7852.927786460851,4510.045589214038,23369.441732101648,16515.525164070747,7218.451168352505,11831.91827916125,0.0,0.0,0.0,2019-03-17T21:30:51.792734,20,EyesOpen
-20043.233936218494,-8474.328634062844,7753.976613757207,4297.927534333174,23351.00154292602,16229.959276909743,7186.398766803595,11663.721402135063,0.0,0.0,0.0,2019-03-17T21:30:51.793116,20,EyesOpen
-19928.94946681851,-8367.152019399646,7787.7500996291765,4178.099832308273,23490.767001005057,15764.283032927875,7299.766814680912,11570.939310901083,0.0,0.0,0.0,2019-03-17T21:30:51.800813,20,EyesOpen
-19899.065184481762,-8330.74102768195,7892.490374146745,4377.767965527531,23528.295579945516,15993.947207206156,7347.286623392895,11729.70375176713,0.0,0.0,0.0,2019-03-17T21:30:51.801211,20,EyesOpen
-20007.426441601092,-8434.319011487843,7870.138629691438,4518.695714318242,23393.626319602292,16486.73611721231,7242.054610497309,11841.976564166138,0.0,0.0,0.0,2019-03-17T21:30:51.808046,20,EyesOpen
-20054.901546824163,-8475.647386985705,7763.431401661802,4334.80791268443,23339.24452534253,16325.334170500539,7180.855534178679,11698.925399652171,-0.002,1.018,0.162,2019-03-17T21:30:51.808587,20,EyesOpen
-19958.632583455157,-8388.922618499115,7763.118477239428,4158.162076254139,23460.525090757026,15799.308216489342,7273.570570179292,11559.38345901769,0.0,0.0,0.0,2019-03-17T21:30:51.815391,20,EyesOpen
-19889.78921053281,-8322.64969618913,7880.018100740684,4328.258851559026,23539.829080084455,15901.120412483266,7355.132085696708,11690.02940535896,0.0,0.0,0.0,2019-03-17T21:30:51.815845,20,EyesOpen
-19982.28072908887,-8420.796206092382,7892.13274623546,4521.2885166750575,23426.729253140602,16433.15898575294,7269.927235833077,11841.730694977128,0.0,0.0,0.0,2019-03-17T21:30:51.824124,20,EyesOpen
-20061.49531143848,-8498.356759352298,7783.905599582863,4382.372424885324,23336.98699915254,16407.275665673693,7175.80403993178,11729.770807000496,0.0,0.0,0.0,2019-03-17T21:30:51.824578,20,EyesOpen
-19981.34195582175,-8408.770967575427,7759.318680682026,4170.924922338119,23443.02367484852,15872.71134528057,7250.548273390326,11567.76536318843,0.0,0.0,0.0,2019-03-17T21:30:51.832229,20,EyesOpen
-19890.07978321073,-8328.79642591434,7863.164885421382,4282.549534147923,23541.036074285043,15833.171109339131,7345.766704769934,11654.154855508192,0.0,0.0,0.0,2019-03-17T21:30:51.832842,20,EyesOpen
-19955.503339231414,-8407.586325119297,7897.117185248993,4508.391560124345,23453.149015086772,16359.442932539338,7287.987445352966,11828.789034937507,0.0,0.0,0.0,2019-03-17T21:30:51.838568,20,EyesOpen
-20062.411732961147,-8501.798927998416,7795.774375888632,4430.428675464234,23337.881068930754,16470.97813737132,7181.727252212436,11763.857217294839,0.0,0.0,0.0,2019-03-17T21:30:51.839418,20,EyesOpen
-19997.189342640562,-8437.135331289212,7745.505302608646,4198.708140696066,23415.620436146313,15959.838445167357,7234.879700527156,11581.57874126181,0.0,0.0,0.0,2019-03-17T21:30:51.845472,20,EyesOpen
-19897.16528620306,-8327.187100313557,7834.040562396117,4246.965556975074,23530.508402646592,15782.343242447763,7339.776437255912,11618.883802757717,0.0,1.016,0.168,2019-03-17T21:30:51.846107,20,EyesOpen
-19947.81433913879,-8378.462002094031,7894.65849335891,4484.74341449063,23466.470654782137,16270.617100073947,7304.415977527617,11806.593752693387,0.0,0.0,0.0,2019-03-17T21:30:51.853391,20,EyesOpen
-20052.956945056554,-8491.852401715803,7816.1591668318715,4468.448992782712,23339.49039453154,16510.987759946318,7192.791365717812,11792.512153686543,0.0,0.0,0.0,2019-03-17T21:30:51.861211,20,EyesOpen
-20017.752947539444,-8460.783476922927,7740.520863595112,4224.323239841848,23385.91496776521,16048.55251891047,7216.19364216252,11604.19870665058,0.0,0.0,0.0,2019-03-17T21:30:51.862009,20,EyesOpen
-19896.092402469207,-8336.59718472924,7824.116387857961,4219.517614783957,23532.22948696965,15756.348163646242,7344.090323935786,11605.428052595622,0.0,0.0,0.0,2019-03-17T21:30:51.867781,20,EyesOpen
-19920.969894047965,-8364.089830409268,7902.950990551829,4450.478190240645,23497.226655152637,16170.458933169715,7330.4334080735935,11788.444136195676,0.0,0.0,0.0,2019-03-17T21:30:51.868521,20,EyesOpen
-20040.328209439303,-8488.097308647313,7833.347658318003,4490.219591882181,23355.069560416887,16519.07909143914,7206.537688557826,11821.01062786706,0.0,0.0,0.0,2019-03-17T21:30:51.876084,20,EyesOpen
-20035.947267526062,-8479.223666098556,7745.751171797654,4262.455315882601,23370.514615835502,16148.554223603514,7201.754415244391,11644.141273992214,0.0,0.0,0.0,2019-03-17T21:30:51.876786,20,EyesOpen
-19921.41692893707,-8362.636967019675,7798.031902078617,4187.666378935144,23510.52594310355,15739.83022449377,7318.832852701289,11586.183200619604,0.0,0.0,0.0,2019-03-17T21:30:51.884040,20,EyesOpen
-19910.732795087435,-8354.098600637746,7893.049167758128,4408.613372875854,23515.21980943916,16059.393114971295,7339.888195978188,11760.057420737437,0.0,0.0,0.0,2019-03-17T21:30:51.884695,20,EyesOpen
-20020.837488274276,-8468.651290971195,7853.710097516788,4513.84538577144,23377.15308393873,16505.399823832493,7228.241232423929,11839.674334487241,0.0,0.0,0.0,2019-03-17T21:30:51.892214,20,EyesOpen
-20043.77037808542,-8491.025387170957,7754.066020735028,4305.035389069962,23352.454406315614,16246.678381762313,7193.9983599184,11677.199504041613,-0.004,1.024,0.156,2019-03-17T21:30:51.892860,20,EyesOpen
-19936.213783766485,-8380.674824795107,7777.133021012905,4173.763593883943,23488.353012603882,15766.78642830687,7306.204117084041,11575.789639447885,0.0,0.0,0.0,2019-03-17T21:30:51.898618,20,EyesOpen
-19902.149725216597,-8344.286184821867,7877.537057106145,4366.927369466707,23531.000141024608,15969.44969528314,7359.200103187573,11727.580336043875,0.0,0.0,0.0,2019-03-17T21:30:51.899493,20,EyesOpen
-20018.04352021736,-8454.167360564155,7860.08034468655,4519.478025374177,23396.599101614847,16470.285233293205,7253.454000169516,11847.206872368679,0.0,0.0,0.0,2019-03-17T21:30:51.906690,20,EyesOpen
-20064.937480084598,-8506.336332122843,7755.675346335811,4348.464828546623,23339.33393232035,16336.063007839086,7191.249095350397,11714.951600426628,0.0,0.0,0.0,2019-03-17T21:30:51.907332,20,EyesOpen
-19960.443074756036,-8396.231638936,7754.91538702433,4170.142611282184,23465.822454192934,15815.759100408448,7291.027282598888,11579.745898216475,0.0,0.0,0.0,2019-03-17T21:30:51.913874,20,EyesOpen
-19897.880542025632,-8341.671030720596,7857.331080118547,4315.563060708411,23534.93404804874,15880.199179673098,7362.977548000521,11693.248056560524,0.0,0.0,0.0,2019-03-17T21:30:51.920191,20,EyesOpen
-19985.946415179544,-8437.939994089604,7874.2737024156695,4514.292420660547,23425.119927539818,16407.990921496264,7280.879590616178,11847.944479935704,0.0,0.0,0.0,2019-03-17T21:30:51.920839,20,EyesOpen
-20055.795616602376,-8505.196393155622,7778.1835530023045,4399.359750671358,23338.886897431243,16416.395177411458,7196.837031464223,11753.731877056585,0.0,0.0,0.0,2019-03-17T21:30:51.928272,20,EyesOpen
-19975.217577840995,-8421.019723536936,7744.678288063799,4184.917114367141,23436.832241634398,15881.09324945131,7264.674575886081,11584.797392463373,0.0,0.0,0.0,2019-03-17T21:30:51.929072,20,EyesOpen
-19891.957329744975,-8326.047161346336,7845.730524746243,4285.209391738104,23540.6560946293,15814.261533529942,7363.178713700619,11662.648518401209,0.006,1.034,0.15,2019-03-17T21:30:51.936271,20,EyesOpen
-19958.72199043298,-8387.916789998626,7888.444708400334,4514.471234616189,23455.272430810026,16335.99595260572,7305.958247895032,11839.987258909614,0.0,0.0,0.0,2019-03-17T21:30:51.936914,20,EyesOpen
-20057.270831736427,-8504.190564655133,7789.068852552039,4445.06906808246,23335.24356308503,16465.993698357786,7194.8924296966115,11782.230351237102,0.0,0.0,0.0,2019-03-17T21:30:51.943432,20,EyesOpen
-19998.597502541244,-8452.178055307633,7736.296383893059,4211.895669924697,23411.239494233072,15958.765561433502,7245.7873518213455,11599.34837810378,0.0,0.0,0.0,2019-03-17T21:30:51.944126,20,EyesOpen
-19888.112829698664,-8338.787655685861,7830.710152472277,4253.2687489114705,23537.303332961004,15761.73493405997,7361.971719500032,11632.071331986348,0.0,0.0,0.0,2019-03-17T21:30:51.951029,20,EyesOpen
-19928.86005984069,-8376.025661948403,7899.352359694524,4493.550001806021,23482.653317767777,16244.97964918371,7332.6015272857585,11821.480014500621,0.0,0.0,0.0,2019-03-17T21:30:51.951890,20,EyesOpen
-20040.23880246148,-8482.241151600021,7821.16595758986,4489.996074437628,23352.297944104426,16512.015940191264,7215.836014251235,11815.534450475508,0.0,0.0,0.0,2019-03-17T21:30:51.959123,20,EyesOpen
-20001.43617408707,-8444.243186026,7748.768657299121,4251.324147143859,23391.25703469003,16071.70892616617,7232.264546425885,11628.91973601815,0.0,0.0,0.0,2019-03-17T21:30:51.959830,20,EyesOpen
-19885.475323852937,-8333.020905616391,7816.941477887807,4222.0433619074065,23524.69694908821,15748.055666453323,7349.499446093971,11606.411529351655,0.0,0.0,0.0,2019-03-17T21:30:51.967008,20,EyesOpen
-19905.860114796178,-8347.169559856602,7900.537002150656,4457.206065321692,23504.73684128962,16151.392895149338,7351.578158328314,11794.032072309503,0.0,0.0,0.0,2019-03-17T21:30:51.967653,20,EyesOpen
-20030.426386645602,-8469.098325860301,7841.975431677751,4511.744321792641,23367.564185567404,16525.337579886625,7235.684363327547,11838.82496819794,0.002,1.038,0.156,2019-03-17T21:30:51.972953,20,EyesOpen
-20030.15816571214,-8478.709575976083,7746.712296809233,4274.41349916619,23369.329973379372,16165.474494156182,7219.345238130718,11654.35602120829,0.0,0.0,0.0,2019-03-17T21:30:51.980254,20,EyesOpen
-19918.6006091357,-8365.162714143124,7785.716090883743,4178.099832308273,23507.12847794634,15734.801081991325,7333.272079619418,11579.947063916572,0.0,0.0,0.0,2019-03-17T21:30:51.980757,20,EyesOpen
-19906.21774270746,-8346.07432437829,7885.829554299064,4397.9068872817625,23524.808707810487,16031.162861724242,7366.777344557923,11751.451999122144,0.0,0.0,0.0,2019-03-17T21:30:51.988341,20,EyesOpen
-20020.993950485463,-8467.779572937437,7853.486580072235,4511.409045625812,23387.72545906609,16487.898407923985,7253.163427491597,11837.349753063889,0.0,0.0,0.0,2019-03-17T21:30:51.988787,20,EyesOpen
-20050.654715377656,-8501.44130008713,7745.885282264386,4301.906144846219,23349.235755114052,16245.31492535054,7202.782595489335,11670.248111516014,0.0,0.0,0.0,2019-03-17T21:30:51.996394,20,EyesOpen
-19933.66568489858,-8379.13255442769,7771.612140132444,4166.141649024684,23488.621233537346,15757.488102613463,7315.569498010815,11563.876159653206,0.0,0.0,0.0,2019-03-17T21:30:51.997121,20,EyesOpen
-19892.65023382309,-8335.546652739842,7874.296054160125,4350.1859128696815,23538.577382394957,15929.887107597246,7370.532437626414,11706.12266136678,0.0,0.0,0.0,2019-03-17T21:30:52.003249,20,EyesOpen
-19997.234046129473,-8444.779627892927,7859.8344754975415,4509.665609558298,23408.601988387345,16438.836328844587,7267.669709643092,11831.404189038776,0.0,0.0,0.0,2019-03-17T21:30:52.003947,20,EyesOpen
-20046.20671823105,-8503.2070878991,7751.741439311677,4347.883683190785,23341.502051532516,16335.414807249881,7200.122737899153,11704.468632277089,0.0,0.0,0.0,2019-03-17T21:30:52.011400,20,EyesOpen
-19946.406179238104,-8404.725301829018,7745.013564230629,4161.827762344809,23463.5872797474,15809.925295105613,7294.603561711737,11561.484522996489,0.004,1.032,0.156,2019-03-17T21:30:52.012096,20,EyesOpen
-19883.620129063147,-8335.88192890667,7849.284452114636,4298.553383177922,23543.897097575322,15848.1914816131,7375.248655706484,11672.572692939364,0.0,0.0,0.0,2019-03-17T21:30:52.019399,20,EyesOpen
-19969.18260683806,-8425.981810806014,7868.328138390558,4498.646199541831,23434.775881144513,16379.134819404462,7295.475279745493,11832.030037883525,0.0,0.0,0.0,2019-03-17T21:30:52.020265,20,EyesOpen
-20048.754817098954,-8504.771710010971,7763.654919106355,4382.8194597744305,23332.67311247267,16410.96370350882,7198.960447187477,11738.353876871333,0.0,0.0,0.0,2019-03-17T21:30:52.025929,20,EyesOpen
-19976.37986855267,-8422.606697393263,7729.322639623004,4161.850114089264,23426.19281127367,15881.38382212923,7269.413145710605,11568.167694588625,0.0,0.0,0.0,2019-03-17T21:30:52.026609,20,EyesOpen
-19890.348004144194,-8333.534995738864,7825.815120436564,4244.1715889181605,23529.16729797927,15780.800972080347,7366.754992813468,11632.473663386543,0.0,0.0,0.0,2019-03-17T21:30:52.032922,20,EyesOpen
-19952.95524036351,-8402.244258194478,7879.459307129301,4477.859077198395,23453.149015086772,16303.451812678793,7316.083588133287,11816.026188853526,0.0,0.0,0.0,2019-03-17T21:30:52.040808,20,EyesOpen
-20051.660543878144,-8504.525840821963,7793.650960165377,4429.512253941566,23335.42237704067,16476.610776974056,7207.767034502868,11775.10014475586,0.0,0.0,0.0,2019-03-17T21:30:52.041662,20,EyesOpen
-19996.809362984823,-8451.082819829324,7730.86490999042,4193.455480749069,23401.58354062838,15986.25820711353,7249.7212588454795,11592.95577918956,0.0,0.0,0.0,2019-03-17T21:30:52.048744,20,EyesOpen
-19889.27512041034,-8346.007269144926,7809.8783266399305,4218.690600239111,23527.043882256017,15757.175178191088,7363.961024756554,11611.887706743206,0.0,0.0,0.0,2019-03-17T21:30:52.049447,20,EyesOpen
-19927.720120873466,-8381.345377128766,7870.3397953915355,4452.534550730533,23474.49493104159,16220.348026793961,7337.541262810381,11798.033034567003,0.0,1.026,0.152,2019-03-17T21:30:52.055554,20,EyesOpen
-20043.837433318786,-8500.055491930902,7788.0406723070955,4459.754164189597,23339.42333929817,16510.160745401474,7222.876813754656,11804.783261392506,0.0,0.0,0.0,2019-03-17T21:30:52.056199,20,EyesOpen
-20034.650866347656,-8490.913628448681,7701.204145098227,4215.829576948831,23367.87710998978,16078.481504736128,7229.180005691052,11614.569916077842,0.0,0.0,0.0,2019-03-17T21:30:52.064254,20,EyesOpen
-19911.693920099013,-8368.80604848934,7771.67919536581,4184.44772773358,23512.17997219324,15732.811776734803,7353.187483929096,11588.664244254142,0.0,0.0,0.0,2019-03-17T21:30:52.064973,20,EyesOpen
-19920.746376603413,-8375.84684799276,7859.789772008631,4419.856300336874,23494.186817906717,16113.014949919576,7355.199140930074,11769.04282200847,0.0,0.0,0.0,2019-03-17T21:30:52.070791,20,EyesOpen
-20031.789843057377,-8480.38595681023,7814.1028063419835,4494.108795417404,23357.170624395683,16513.35704485858,7242.255776197408,11824.3410377909,0.0,0.0,0.0,2019-03-17T21:30:52.071631,20,EyesOpen
-20042.49632865147,-8487.449108058108,7717.342104594959,4264.355214161303,23345.23479285655,16180.62897689688,7213.578488061248,11640.87791930174,0.0,0.0,0.0,2019-03-17T21:30:52.078579,20,EyesOpen
-19925.306132472295,-8371.667071779619,7763.453753406257,4161.380727455703,23488.420067837247,15733.549384301828,7331.059256918342,11558.154113072647,0.0,0.0,0.0,2019-03-17T21:30:52.079057,20,EyesOpen
-19901.836800794223,-8349.248272090945,7870.518609347178,4371.353014868858,23516.918542017764,15997.389375852274,7370.130106226219,11722.12651039678,0.0,0.0,0.0,2019-03-17T21:30:52.086715,20,EyesOpen
-20011.829735258787,-8465.946729892103,7840.500216543701,4492.052434927516,23376.035496715966,16466.373678013526,7255.040974025843,11816.80849990946,0.0,0.0,0.0,2019-03-17T21:30:52.087597,20,EyesOpen
-20045.7820350864,-8508.258582146,7736.251680404149,4291.646694141233,23333.52247876197,16257.228405145217,7202.201450133497,11661.888559089728,-0.002,1.028,0.156,2019-03-17T21:30:52.093041,20,EyesOpen
-19942.47227221397,-8401.216077949533,7748.545139854567,4137.062029488329,23461.530919257515,15747.608631564217,7304.751253694446,11543.33490649878,0.0,0.0,0.0,2019-03-17T21:30:52.093768,20,EyesOpen
-19892.47141986745,-8338.98882138596,7857.3087283740915,4321.039238099961,23519.08666122993,15896.314787425375,7370.174809715129,11688.285969291446,0.0,0.0,0.0,2019-03-17T21:30:52.100552,20,EyesOpen
-19985.99111866845,-8433.357886476266,7864.416583110879,4507.095158945937,23402.075279006396,16427.369883939016,7283.338282506262,11837.126235619335,0.0,0.0,0.0,2019-03-17T21:30:52.108117,20,EyesOpen
-20046.541994397878,-8502.692997776629,7761.777372572109,4357.33847109538,23326.213458325085,16352.04450512463,7206.47063332446,11720.204260373624,0.0,0.0,0.0,2019-03-17T21:30:52.108534,20,EyesOpen
-19957.358534021205,-8412.593115877286,7742.3760583849025,4158.787925098887,23433.747700899567,15814.507402718951,7286.735747663468,11564.792581175874,0.0,0.0,0.0,2019-03-17T21:30:52.116033,20,EyesOpen
-19876.109942926163,-8328.684667192063,7845.484655557234,4289.389167951246,23525.009873510586,15820.251801043965,7372.968777772043,11667.096515547815,0.0,0.0,0.0,2019-03-17T21:30:52.116333,20,EyesOpen
-19955.57039446478,-8406.736958829995,7866.160019178394,4501.0378361985495,23422.281255993996,16350.926917901865,7299.476242002994,11832.544128005997,0.0,0.0,0.0,2019-03-17T21:30:52.122640,20,EyesOpen
-20037.86951754922,-8494.646369772718,7763.990195273184,4406.266439708047,23320.55846697789,16417.95979952333,7204.481328067938,11756.771714302507,0.0,0.0,0.0,2019-03-17T21:30:52.122897,20,EyesOpen
-19974.34585980724,-8432.508520186964,7718.638505773367,4177.228114274516,23408.95961629863,15892.33617691233,7267.401488709627,11582.763383717942,0.0,0.0,0.0,2019-03-17T21:30:52.131488,20,EyesOpen
-19878.613338305157,-8331.121007337691,7819.780149433631,4252.061754710884,23528.36263517888,15771.457942898029,7380.3225016978395,11646.577614137843,-0.006,1.032,0.152,2019-03-17T21:30:52.132583,20,EyesOpen
-19940.281801257348,-8382.440612607075,7873.066708215083,4488.833783725951,23457.55230874447,16281.949434512788,7335.775474998412,11833.751122206584,0.0,0.0,0.0,2019-03-17T21:30:52.139628,20,EyesOpen
-20041.132872239694,-8486.219762113067,7789.292369996592,4451.5510739745,23336.495260774525,16479.114172353053,7224.5978980777145,11802.302217757968,0.0,0.0,0.0,2019-03-17T21:30:52.140459,20,EyesOpen
-19997.032880429375,-8446.925395360637,7722.90768896433,4208.989943145507,23390.43002014518,15994.327186861896,7251.621157124181,11611.39596836519,0.0,0.0,0.0,2019-03-17T21:30:52.146247,20,EyesOpen
-19891.622053578147,-8344.800274944339,7799.820041635042,4214.533175770423,23513.878704771843,15729.414311577597,7359.624786332225,11614.636971311209,0.0,0.0,0.0,2019-03-17T21:30:52.146888,20,EyesOpen
-19915.381957934136,-8372.60584504674,7875.41364138289,4459.173018833759,23472.30446008497,16176.605662894925,7340.871672734222,11803.710377658652,0.0,0.0,0.0,2019-03-17T21:30:52.153727,20,EyesOpen
-20027.386549399682,-8486.86796270227,7806.838489394008,4483.64817901232,23333.76834795098,16492.54757077069,7220.149900931108,11819.222488310634,0.0,0.0,0.0,2019-03-17T21:30:52.154462,20,EyesOpen
-20009.996892213454,-8469.210084582577,7727.825072744498,4245.780914518942,23358.087045918353,16085.90228389529,7226.631906823148,11634.418265154156,0.0,0.0,0.0,2019-03-17T21:30:52.160849,20,EyesOpen
-19888.78338203232,-8348.242443590456,7796.579038689022,4197.456443006568,23500.780582521034,15718.216087605488,7348.426562360116,11597.58259029181,0.0,0.0,0.0,2019-03-17T21:30:52.168659,20,EyesOpen
-19889.16336168806,-8344.599109244242,7890.4116619124015,4431.121579542349,23494.924425473742,16078.213283802663,7357.009632230954,11778.38585119079,0.0,0.0,0.0,2019-03-17T21:30:52.169337,20,EyesOpen
-20006.53237182288,-8458.615357710762,7843.249481111704,4516.3040776615235,23353.549641793925,16488.993643402297,7239.350049418217,11838.355581564378,-0.008,1.026,0.152,2019-03-17T21:30:52.175919,20,EyesOpen
-20017.52943009489,-8478.284892831432,7743.515997352123,4297.905182588718,23338.931600920154,16183.087668786964,7213.064397938776,11665.040155057926,0.0,0.0,0.0,2019-03-17T21:30:52.176746,20,EyesOpen
-19904.161382217575,-8367.174371144101,7770.427497676314,4183.374843999725,23474.874910697334,15722.418215563086,7325.06898940432,11577.041337137383,0.0,0.0,0.0,2019-03-17T21:30:52.183323,20,EyesOpen
-19873.047753935785,-8330.405751515122,7873.0443564706275,4391.626047089821,23505.720318045656,15968.645032482747,7365.8385712908,11735.872833236794,0.0,0.0,0.0,2019-03-17T21:30:52.183979,20,EyesOpen
-19986.86283670221,-8438.655249912174,7845.194082879315,4525.870624288395,23368.927641979175,16448.268765004726,7253.34224144724,11836.76860770805,0.0,0.0,0.0,2019-03-17T21:30:52.191306,20,EyesOpen
-20026.470127877015,-8493.260561616487,7739.939718239274,4335.880796418285,23321.38548152274,16263.93392848181,7195.004188418889,11687.034271601948,0.0,0.0,0.0,2019-03-17T21:30:52.192082,20,EyesOpen
-19918.198277735508,-8385.346339386266,7756.591767858478,4175.708195651555,23456.904108155264,15751.520186843896,7302.6054862267365,11562.467999752522,0.0,0.0,0.0,2019-03-17T21:30:52.199394,20,EyesOpen
-19862.631841019615,-8324.907222379115,7868.752821535209,4343.234520344081,23522.729995576145,15866.47520857754,7374.22047546154,11693.113946093792,0.0,0.0,0.0,2019-03-17T21:30:52.200358,20,EyesOpen
-19966.746266692433,-8423.076084026825,7869.89276050243,4521.042647486049,23397.135543481774,16388.34373812005,7277.146849292141,11829.638401226808,0.0,0.0,0.0,2019-03-17T21:30:52.206086,20,EyesOpen
-20038.02597976041,-8492.679416260651,7763.409049917347,4379.399642872768,23312.33302501834,16341.941516630832,7192.880772695634,11716.762091727507,0.0,0.0,0.0,2019-03-17T21:30:52.206730,20,EyesOpen
-19943.99219083693,-8400.791394804883,7749.863892777431,4182.8384021327975,23424.002340317053,15808.092452060278,7279.516134204404,11564.300842797857,-0.008,1.022,0.16,2019-03-17T21:30:52.214077,20,EyesOpen
-19869.158550400563,-8325.689533435052,7851.296109115614,4300.609743667811,23513.65518732729,15784.310195959832,7368.006690502965,11654.803056097397,0.0,0.0,0.0,2019-03-17T21:30:52.214724,20,EyesOpen
-19943.567507692278,-8404.904115784659,7886.611865354999,4523.926022520784,23420.582523415393,16317.8016326191,7302.292561804362,11829.906622160272,0.0,0.0,0.0,2019-03-17T21:30:52.221267,20,EyesOpen
-20027.52065986641,-8492.29943660491,7793.807422376564,4442.096286069905,23320.62552221126,16415.590514611067,7205.040121679321,11766.695888840663,0.0,0.0,0.0,2019-03-17T21:30:52.228049,20,EyesOpen
-19970.47900801647,-8427.300563728877,7742.174892684805,4204.11726285425,23400.555360383434,15895.308958924887,7255.778581592868,11585.825572708318,0.0,0.0,0.0,2019-03-17T21:30:52.228873,20,EyesOpen
-19880.22266390594,-8328.394094514144,7831.961850161773,4258.74492630302,23517.52203911806,15736.611573292206,7363.491638122993,11629.657343585175,0.0,0.0,0.0,2019-03-17T21:30:52.235559,20,EyesOpen
-19926.826051095253,-8370.683595023584,7892.825650313574,4495.896934973828,23455.65241046577,16237.536518280092,7326.812425471834,11818.730749932618,0.0,0.0,0.0,2019-03-17T21:30:52.236205,20,EyesOpen
-20027.475956377504,-8487.382052824743,7805.877364382431,4467.800792193508,23329.14153684873,16460.718686666332,7213.600839805704,11797.943627589182,0.0,0.0,0.0,2019-03-17T21:30:52.243742,20,EyesOpen
-19997.032880429375,-8457.274253043444,7729.747322767655,4220.344629328803,23376.750752538534,15987.398146080752,7237.71837207298,11604.332817117313,0.0,0.0,0.0,2019-03-17T21:30:52.244444,20,EyesOpen
-19884.044812207798,-8339.592318486253,7807.017303349651,4214.1755478591385,23513.521076860558,15700.513505996885,7356.249672919474,11600.421261837633,0.0,0.0,0.0,2019-03-17T21:30:52.251606,20,EyesOpen
-19912.297417199305,-8366.190894388068,7882.208571697304,4452.780419919542,23478.45118981018,16129.622296049869,7344.582062313803,11788.04180479548,-0.008,1.022,0.156,2019-03-17T21:30:52.252551,20,EyesOpen
-20034.047369247364,-8486.845610957815,7805.251515537681,4481.882391200351,23334.57301075137,16461.858625633555,7220.172252675564,11806.705511415663,0.0,0.0,0.0,2019-03-17T21:30:52.258268,20,EyesOpen
-20020.926895252098,-8473.523971262452,7722.080674419484,4253.4475628671125,23358.57878429637,16079.75555417008,7224.173214933064,11628.092721473304,0.0,0.0,0.0,2019-03-17T21:30:52.259027,20,EyesOpen
-19902.41794615006,-8354.098600637746,7779.189381502793,4191.130899325717,23500.490009843114,15686.566017456773,7344.425600102616,11577.555427259855,0.0,0.0,0.0,2019-03-17T21:30:52.266343,20,EyesOpen
-19887.17405643154,-8349.069458135302,7873.0443564706275,4415.117730512349,23501.741707532612,16021.283390674997,7362.55286485587,11752.681345067185,0.0,0.0,0.0,2019-03-17T21:30:52.266984,20,EyesOpen
-20009.43809860207,-8464.650328713695,7830.888966427919,4508.972705480183,23357.707066262614,16452.69441040688,7242.948680275522,11823.737540690607,0.0,0.0,0.0,2019-03-17T21:30:52.274357,20,EyesOpen
-20038.428311160602,-8497.239172129533,7727.422741344302,4288.271580728481,23325.22998156905,16166.592081378947,7199.18396463203,11649.237471728024,0.0,0.0,0.0,2019-03-17T21:30:52.275003,20,EyesOpen
-19924.501469671904,-8383.714662041028,7751.607328844944,4153.714079107533,23455.7865209325,15683.72734591095,7304.170108338608,11546.106522811238,0.0,0.0,0.0,2019-03-17T21:30:52.281564,20,EyesOpen
-19884.693012797,-8344.800274944339,7860.661490042387,4355.304462349947,23498.277187142037,15907.378900930751,7357.143742697685,11705.161536355203,0.0,0.0,0.0,2019-03-17T21:30:52.287814,20,EyesOpen
-19992.42842107158,-8445.293718015399,7845.663469512877,4510.649086314331,23370.939298980153,16411.947180264855,7259.2878054723515,11826.553860491975,0.0,0.0,0.0,2019-03-17T21:30:52.288563,20,EyesOpen
-20039.612953616735,-8497.082709918346,7736.899880993353,4330.494026004556,23311.058975584387,16256.781370256112,7195.115947141165,11685.335539023345,-0.008,1.024,0.154,2019-03-17T21:30:52.295862,20,EyesOpen
-19937.174908778063,-8400.925505271614,7737.749247282654,4155.546922152867,23438.039235834985,15736.656276781116,7292.68131168858,11553.348488014757,0.0,0.0,0.0,2019-03-17T21:30:52.296542,20,EyesOpen
-19876.333460370715,-8332.640925960652,7846.848111969008,4313.417293240702,23512.112916959875,15828.186670325598,7370.4653823930485,11679.814658142885,0.0,0.0,0.0,2019-03-17T21:30:52.303760,20,EyesOpen
-19966.70156320352,-8421.33264795931,7861.108524931494,4507.184565923759,23401.181209228183,16363.734467474756,7288.792108153357,11835.71807571865,0.0,0.0,0.0,2019-03-17T21:30:52.304473,20,EyesOpen
-20035.187308214583,-8500.34606460882,7758.692831837277,4375.733956782098,23316.75867042049,16348.37881903396,7203.989589689922,11733.011809946514,0.0,0.0,0.0,2019-03-17T21:30:52.312462,20,EyesOpen
-19953.625792697167,-8418.471624669031,7731.401351857347,4163.235922245493,23421.8789245938,15810.394681739173,7281.661901672113,11572.235712079491,0.0,0.0,0.0,2019-03-17T21:30:52.313541,20,EyesOpen
-19876.355812115173,-8334.138492839158,7834.2417280962145,4269.719632830576,23520.964207764177,15759.477407869985,7376.925036540632,11654.154855508192,0.0,0.0,0.0,2019-03-17T21:30:52.318927,20,EyesOpen
-19947.61317343869,-8401.394891905176,7876.955911750307,4499.741435020142,23431.758395643046,16285.056326992075,7317.491748033971,11830.532471005019,0.0,0.0,0.0,2019-03-17T21:30:52.319660,20,EyesOpen
-20037.06485474883,-8505.554021066908,7778.228256491216,4422.985544560617,23316.75867042049,16396.546828335147,7211.164499660075,11765.310080684434,0.0,0.0,0.0,2019-03-17T21:30:52.326632,20,EyesOpen
-19977.5645110088,-8446.657174427173,7726.506319821635,4188.9404283690965,23396.599101614847,15882.456705863084,7261.05359328432,11583.255122095958,0.0,0.0,0.0,2019-03-17T21:30:52.327276,20,EyesOpen
-19874.45591383647,-8335.501949250931,7821.635344223421,4238.6507080377,23527.73678633413,15703.933322898547,7376.768574329445,11625.835195283318,-0.006,1.026,0.156,2019-03-17T21:30:52.334584,20,EyesOpen
-19927.206030750996,-8389.74963304396,7872.08323145905,4466.526742759555,23457.731122700112,16185.144029276853,7334.0096871864425,11807.264305027045,0.0,0.0,0.0,2019-03-17T21:30:52.335230,20,EyesOpen
-20038.942401283075,-8497.44033782963,7780.441079192291,4443.415038992767,23323.263028056983,16431.326142707603,7214.696075284014,11790.232275752101,0.0,0.0,0.0,2019-03-17T21:30:52.341862,20,EyesOpen
-20007.068813689806,-8463.309224046377,7702.768767210098,4197.188222073105,23369.508787335013,15976.646956997749,7235.818473794279,11599.214267637048,0.0,0.0,0.0,2019-03-17T21:30:52.342590,20,EyesOpen
-19893.723117556943,-8348.823588946294,7776.417765190336,4181.229076532016,23506.636739568323,15667.522331180851,7355.199140930074,11583.858619196251,0.0,0.0,0.0,2019-03-17T21:30:52.348276,20,EyesOpen
-19917.17009749056,-8377.366766615722,7854.64887078391,4418.336381713913,23477.624175265333,16079.353222769883,7347.286623392895,11769.221635964113,0.0,0.0,0.0,2019-03-17T21:30:52.356117,20,EyesOpen
-20028.459433133536,-8490.600704026307,7792.9133525983525,4470.483001528144,23339.89272593173,16440.33389572309,7231.214014436486,11809.00774109456,0.0,0.0,0.0,2019-03-17T21:30:52.356930,20,EyesOpen
-20025.374892398704,-8485.236285357034,7701.472366031691,4237.93545221513,23346.821766712877,16073.430010489228,7220.708694542492,11627.221003439547,0.0,0.0,0.0,2019-03-17T21:30:52.364053,20,EyesOpen
-19912.766803832867,-8371.398850846153,7752.903730023352,4158.407945443148,23485.290823613504,15660.973270055447,7336.513082565437,11562.803275919352,0.0,0.0,0.0,2019-03-17T21:30:52.364921,20,EyesOpen
-19900.27217868235,-8357.116086139213,7849.9103009593855,4378.326759138913,23495.103239429383,15973.920044174201,7363.335175911806,11732.341257612856,0.0,0.0,0.0,2019-03-17T21:30:52.372209,20,EyesOpen
-20004.90069447764,-8468.003090381992,7818.707265699776,4488.02912092556,23362.803263998423,16424.53121239319,7254.7056978590135,11816.495575487086,-0.006,1.024,0.146,2019-03-17T21:30:52.372885,20,EyesOpen
-20025.01726448742,-8494.422852328164,7721.700694763744,4284.605894637811,23337.09875787482,16173.118790759898,7218.04883695231,11660.88273058924,0.0,0.0,0.0,2019-03-17T21:30:52.378811,20,EyesOpen
-19915.33725444523,-8379.490182338976,7745.639413075378,4145.7345063369885,23471.298631584483,15684.95669185599,7328.220585372518,11557.28239503889,0.0,0.0,0.0,2019-03-17T21:30:52.379579,20,EyesOpen
-19881.206140661972,-8338.184158585567,7848.926824203351,4333.377401039291,23515.957417006186,15873.47130459205,7384.882257566722,11708.335484067857,0.0,0.0,0.0,2019-03-17T21:30:52.387313,20,EyesOpen
-19993.948339694543,-8441.00218307998,7833.459417040279,4486.956237191705,23387.34547941035,16376.698479258834,7283.561799950815,11832.43236928372,0.0,0.0,0.0,2019-03-17T21:30:52.388116,20,EyesOpen
-20046.8325670758,-8479.2013143541,7727.57920355549,4316.0771508308835,23324.179449579653,16249.986439941698,7214.718427028469,11700.35591129731,0.0,0.0,0.0,2019-03-17T21:30:52.393799,20,EyesOpen
-19947.99315309443,-8381.635949806685,7718.370284839903,4129.462436373525,23441.21318354764,15716.897334682624,7304.7736054389015,11553.460246737033,0.0,0.0,0.0,2019-03-17T21:30:52.394444,20,EyesOpen
-19875.774666759335,-8308.858669860205,7828.877309426941,4283.46595567059,23522.7523473206,15777.604672623238,7386.379824445227,11672.572692939364,0.0,0.0,0.0,2019-03-17T21:30:52.401523,20,EyesOpen
-19960.13015033366,-8392.454194123053,7842.690687500321,4481.927094689261,23412.178267500196,16308.033920292131,7301.867878659711,11828.409055281765,0.0,0.0,0.0,2019-03-17T21:30:52.402265,20,EyesOpen
-20031.499270379456,-8465.76791593646,7742.465465362724,4367.284997377992,23323.86652515728,16320.483841953737,7214.941944473022,11735.492853581054,0.0,0.0,0.0,2019-03-17T21:30:52.408575,20,EyesOpen
-19959.61606021119,-8389.257894665945,7708.110834134917,4149.310785449838,23419.86726759282,15780.756268591436,7282.332454005773,11560.433991007088,-0.004,1.03,0.14400000000000002,2019-03-17T21:30:52.416309,20,EyesOpen
-19876.44521909299,-8303.784823868851,7806.637323693911,4240.707068527588,23521.053614741995,15693.606816960195,7375.718042340046,11625.008180738472,0.0,0.0,0.0,2019-03-17T21:30:52.417028,20,EyesOpen
-19941.332333246748,-8371.488257823976,7852.2572341271925,4475.892123686329,23441.481404481103,16219.275143060106,7321.8279864583,11802.838659624895,0.0,0.0,0.0,2019-03-17T21:30:52.422946,20,EyesOpen
-20045.53616589739,-8482.509372533486,7751.964956756229,4408.971000787139,23320.156135577698,16368.204816365816,7208.8622699811785,11747.495740353554,0.0,0.0,0.0,2019-03-17T21:30:52.423719,20,EyesOpen
-19997.30110136284,-8430.921546330637,7688.642464714345,4163.928826323608,23387.613700343813,15863.122446909243,7249.34127918974,11559.852845651252,0.0,0.0,0.0,2019-03-17T21:30:52.431012,20,EyesOpen
-19896.897065269597,-8329.824606159284,7768.840523819987,4191.041492347896,23509.6989285587,15646.064656503757,7358.596606087281,11583.053956395861,0.0,0.0,0.0,2019-03-17T21:30:52.431943,20,EyesOpen
-19935.118548288174,-8363.061650164325,7837.281565342137,4435.279004011036,23459.385151789804,16124.168470402774,7334.344963353273,11774.89897905576,0.0,0.0,0.0,2019-03-17T21:30:52.438896,20,EyesOpen
-20038.16009022714,-8467.824276426349,7771.343919198981,4447.0360215945275,23334.32714156236,16407.454479629338,7228.844729524223,11783.012662293037,0.0,0.0,0.0,2019-03-17T21:30:52.439466,20,EyesOpen
-20007.694662534555,-8452.15570356318,7697.292589818549,4207.157100100172,23370.53696757996,15971.908387173224,7246.05557275481,11600.935351960106,0.0,0.0,0.0,2019-03-17T21:30:52.446070,20,EyesOpen
-19888.64927156559,-8330.338696281755,7771.030994776606,4177.049300318873,23510.50359135909,15640.879051790125,7365.480943379515,11582.450459295567,0.0,0.0,0.0,2019-03-17T21:30:52.446868,20,EyesOpen
-19895.712422813467,-8325.421312501587,7864.193065666326,4421.465625937656,23502.27814939954,16047.390228198796,7375.874504551233,11776.553008145453,-0.004,1.028,0.146,2019-03-17T21:30:52.453654,20,EyesOpen
-20017.372967883704,-8447.752409905483,7802.278733525126,4476.137992875337,23358.310563362906,16431.97434329681,7253.38694493615,11820.63064821132,0.0,0.0,0.0,2019-03-17T21:30:52.454408,20,EyesOpen
-20028.258267433437,-8471.132334605734,7697.113775862906,4234.9626702025735,23345.52536553447,16079.375574514339,7225.939002745034,11631.356076163778,0.0,0.0,0.0,2019-03-17T21:30:52.461826,20,EyesOpen
-19907.89412354161,-8356.89256869466,7742.823093274009,4142.225282457505,23488.017736437054,15642.533080879819,7347.711306537546,11559.785790417885,0.0,0.0,0.0,2019-03-17T21:30:52.462469,20,EyesOpen
-19887.777553531832,-8332.685629449563,7843.137722389427,4358.947796696162,23507.55316109099,15930.244735508531,7380.277798208928,11728.161481399713,0.0,0.0,0.0,2019-03-17T21:30:52.468755,20,EyesOpen
-19991.75786873792,-8439.705781901572,7818.819024422053,4482.731757489652,23376.996621727543,16402.62650282699,7275.246951013441,11826.285639558511,0.0,0.0,0.0,2019-03-17T21:30:52.475835,20,EyesOpen
-20029.01822674492,-8478.3519480648,7712.3800173258805,4276.9839497785515,23333.410720039694,16171.844741325946,7223.457959110494,11663.430829457144,0.0,0.0,0.0,2019-03-17T21:30:52.476631,20,EyesOpen
-19922.154536504095,-8369.163676400623,7725.835767487975,4127.942517750564,23463.229651836118,15668.86343584817,7325.940707438077,11545.10069431075,0.0,0.0,0.0,2019-03-17T21:30:52.483245,20,EyesOpen
-19869.89615796759,-8323.141434567146,7834.018210651662,4312.433816484669,23519.488992630126,15832.455853516562,7388.614998890758,11686.006091357005,0.0,0.0,0.0,2019-03-17T21:30:52.484112,20,EyesOpen
-19977.586862753258,-8434.989563821502,7816.583849976522,4475.623902752865,23387.39018289926,16342.768531175678,7283.718262162002,11809.72299691713,0.0,0.0,0.0,2019-03-17T21:30:52.491296,20,EyesOpen
-20042.92101179612,-8493.193506383122,7709.854270202431,4320.793368910953,23320.871391400266,16249.293535863584,7212.215031649474,11688.062451846892,-0.002,1.022,0.152,2019-03-17T21:30:52.492152,20,EyesOpen
-19942.18169953605,-8389.347301643766,7712.044741159051,4141.331212679293,23449.30451504046,15725.368645831186,7315.480091032993,11551.292127524868,0.0,0.0,0.0,2019-03-17T21:30:52.498487,20,EyesOpen
-19874.74648651439,-8320.258059532413,7815.130986586927,4273.251208454515,23530.441347413227,15748.97208797599,7395.678150138635,11653.573710152354,0.0,0.0,0.0,2019-03-17T21:30:52.499166,20,EyesOpen
-19960.9124613896,-8408.390987919687,7834.375838562947,4475.579199263954,23421.16366877123,16276.987347243708,7314.831890443789,11813.031055096515,0.0,0.0,0.0,2019-03-17T21:30:52.505988,20,EyesOpen
-20042.518680395926,-8492.657064516196,7738.598613571956,4370.727166024109,23325.073519357866,16324.171879788862,7224.687305055536,11733.414141346711,0.0,0.0,0.0,2019-03-17T21:30:52.506822,20,EyesOpen
-19973.65295572912,-8428.820482351837,7697.113775862906,4141.085343490284,23414.078165778898,15788.132344261689,7289.641474442658,11555.583662460287,0.0,0.0,0.0,2019-03-17T21:30:52.514166,20,EyesOpen
-19884.60360581918,-8336.977164384982,7791.616951419945,4213.706161225577,23519.712510074678,15671.188017271521,7391.36426345876,11614.77108177794,0.0,0.0,0.0,2019-03-17T21:30:52.515021,20,EyesOpen
-19949.37896125066,-8396.812784291838,7835.381667063435,4442.252748281092,23439.000360846563,16182.975910064688,7337.809483743845,11792.109822286347,0.0,0.0,0.0,2019-03-17T21:30:52.522043,20,EyesOpen
-20045.558517641846,-8491.740642993527,7751.473218378213,4403.986561773606,23321.56429547838,16373.077496657073,7232.219842936975,11760.929138771193,0.0,0.0,0.0,2019-03-17T21:30:52.522713,20,EyesOpen
-20001.950264209543,-8451.507502973975,7681.400499510825,4157.1785994981055,23374.29206064845,15877.561673827371,7261.813552595801,11569.128819600204,0.0,0.0,0.0,2019-03-17T21:30:52.528368,20,EyesOpen
-19889.319823899248,-8339.122931852691,7766.5606458855455,4175.171753784627,23504.93800698972,15633.614734842151,7375.896856295688,11585.803220963862,-0.002,1.026,0.154,2019-03-17T21:30:52.535410,20,EyesOpen
-19921.595742892714,-8372.382327602189,7835.426370552346,4413.486053167111,23457.798177933477,16093.56893224346,7352.449876362071,11775.368365689323,0.0,0.0,0.0,2019-03-17T21:30:52.536191,20,EyesOpen
-20032.169822713116,-8491.628884271251,7762.939663283785,4427.612355662865,23320.111432088786,16395.071613201097,7232.309249914796,11785.024319294014,0.0,0.0,0.0,2019-03-17T21:30:52.546500,20,EyesOpen
-20010.04159570236,-8476.161477108179,7684.507391990112,4189.745091169488,23350.442749314636,15976.334032575374,7240.534691874349,11597.157907147159,0.0,0.0,0.0,2019-03-17T21:30:52.547387,20,EyesOpen
-19886.727021542432,-8351.148170369646,7754.960090513241,4150.741297094977,23495.50557082958,15624.718740548939,7364.206893945563,11565.261967809436,0.0,0.0,0.0,2019-03-17T21:30:52.553035,20,EyesOpen
-19894.57248384625,-8349.427086046588,7846.065800913072,4385.792241786986,23487.995384692596,16000.205695653642,7375.31571093985,11748.501568854042,0.0,0.0,0.0,2019-03-17T21:30:52.553775,20,EyesOpen
-20017.976464983996,-8465.209122325077,7793.226277020726,4457.563693232977,23348.028760913465,16402.402985382436,7257.298500215829,11807.532525960509,0.0,0.0,0.0,2019-03-17T21:30:52.559473,20,EyesOpen
-20026.134851710183,-8485.549209779407,7694.319807805992,4231.945184701108,23338.0598828864,16081.677804193236,7230.141130702631,11632.20544245308,0.0,0.0,0.0,2019-03-17T21:30:52.560297,20,EyesOpen
-19906.016577007365,-8369.454249078542,7729.613212300923,4122.555747336834,23474.78550371951,15626.171603938534,7340.044658189376,11545.972412344505,0.0,0.0,0.0,2019-03-17T21:30:52.566300,20,EyesOpen
-19891.42088787805,-8346.454304034032,7823.110559357472,4325.263717802014,23495.55027431849,15883.171961685654,7374.868676050744,11704.401577043722,0.0,0.0,0.0,2019-03-17T21:30:52.566942,20,EyesOpen
-20005.548895066848,-8455.977851865036,7792.108689797961,4455.1944083207145,23359.025819185474,16362.885101185455,7266.753288120424,11804.604447436865,-0.002,1.024,0.152,2019-03-17T21:30:52.574276,20,EyesOpen
-20041.602258873256,-8492.72411974956,7687.033139113562,4263.550551360911,23313.495315730015,16170.86126456991,7215.634848551136,11654.557186908387,0.0,0.0,0.0,2019-03-17T21:30:52.574926,20,EyesOpen
-19930.08940578573,-8386.128650442202,7699.684226475267,4106.350732606737,23447.002285361563,15661.263842733366,7324.934878937588,11534.640077905666,0.0,0.0,0.0,2019-03-17T21:30:52.581520,20,EyesOpen
-19866.297527110284,-8322.35912351121,7813.007570863673,4289.0762435288725,23517.007948995586,15797.184800766088,7400.5731821743475,11677.423021486167,0.0,0.0,0.0,2019-03-17T21:30:52.582373,20,EyesOpen
-19974.323508062782,-8428.172281762634,7813.1640330748605,4467.867847426874,23390.966462012108,16323.009589077186,7302.672541460102,11818.104901087869,0.0,0.0,0.0,2019-03-17T21:30:52.587958,20,EyesOpen
-20046.810215331345,-8506.693960034128,7699.438357286258,4311.673857173188,23303.101754558298,16254.657954532857,7212.595011305215,11692.666911204686,0.0,0.0,0.0,2019-03-17T21:30:52.588629,20,EyesOpen
-19950.205975795507,-8408.592153619786,7682.674548944778,4110.530508819879,23417.721500125113,15715.086843381745,7300.616180970214,11537.545804684854,0.0,0.0,0.0,2019-03-17T21:30:52.596077,20,EyesOpen
-19872.198387646484,-8323.923745623082,7791.773413631131,4240.081219682839,23514.504553616593,15710.884715424147,7396.259295494473,11640.989678024016,0.0,0.0,0.0,2019-03-17T21:30:52.603888,20,EyesOpen
-19952.15057756312,-8403.495955883975,7821.098902356494,4457.116658343871,23415.39691870176,16247.393637584883,7326.052466160353,11811.913467873748,0.0,0.0,0.0,2019-03-17T21:30:52.604544,20,EyesOpen
-20045.133834497195,-8499.29553261942,7717.677380761788,4355.5279797945,23305.202818537095,16322.048464065609,7220.9545637315,11733.078865179881,0.0,0.0,0.0,2019-03-17T21:30:52.611173,20,EyesOpen
-19981.699583733032,-8439.504616201475,7667.6094731819,4122.734561292477,23389.178322455686,15797.050690299357,7277.526828947882,11554.913110126628,0.0,1.026,0.146,2019-03-17T21:30:52.612196,20,EyesOpen
-19877.87573073813,-8335.658411462118,7767.275901708115,4197.054111606373,23512.649358826802,15659.00631654338,7392.683016381624,11613.362921877257,0.0,0.0,0.0,2019-03-17T21:30:52.618423,20,EyesOpen
-19931.94460057552,-8386.352167886755,7825.725713458743,4438.296489512502,23444.230669049106,16165.988584278653,7354.148608940674,11805.09618581488,0.0,0.0,0.0,2019-03-17T21:30:52.619156,20,EyesOpen
-20039.6800088501,-8488.544343536418,7736.385790870881,4401.214945461148,23315.752841920003,16374.19508387984,7239.014773251388,11776.105973256348,0.0,0.0,0.0,2019-03-17T21:30:52.626593,20,EyesOpen
-20000.877380475686,-8449.853473884283,7667.341252248437,4154.608148885745,23368.01122045651,15893.766688557469,7267.245026498441,11584.931502930105,0.0,0.0,0.0,2019-03-17T21:30:52.627241,20,EyesOpen
-19889.16336168806,-8340.441684775555,7748.589843343479,4155.569273897323,23502.45696335518,15617.409720112053,7385.50810641147,11583.880970940707,0.0,0.0,0.0,2019-03-17T21:30:52.633673,20,EyesOpen
-19910.308111942784,-8363.553388542341,7826.463321025768,4395.738768069597,23466.962393160153,16057.403809714773,7370.5771411153255,11771.054479009448,0.0,0.0,0.0,2019-03-17T21:30:52.634523,20,EyesOpen
-20021.888020263676,-8482.509372533486,7755.1165527244275,4423.58904166091,23326.7051967031,16387.136743919462,7248.938947789544,11789.204095507157,0.0,0.0,0.0,2019-03-17T21:30:52.641239,20,EyesOpen
-20007.20292415654,-8466.326709547844,7671.94571160623,4190.505050480968,23349.48162430306,15990.102707159844,7252.8281513247675,11603.192878150092,0.0,0.0,0.0,2019-03-17T21:30:52.641916,20,EyesOpen
-19893.767821045854,-8347.728353467985,7734.083561191984,4136.279718432394,23492.59984405039,15602.970493193925,7374.9804347730205,11560.09871484026,0.0,0.0,0.0,2019-03-17T21:30:52.649315,20,EyesOpen
-19896.293568169305,-8340.93342315357,7825.301030314092,4363.440497331679,23486.855445725378,15949.713104929104,7388.07855702383,11737.549214070943,-0.002,1.026,0.154,2019-03-17T21:30:52.649957,20,EyesOpen
-20012.433232359082,-8457.430715254632,7777.669462879832,4450.388783262823,23345.882993445754,16375.7150025028,7269.7931253663455,11805.610275937352,0.0,0.0,0.0,2019-03-17T21:30:52.656342,20,EyesOpen
-20030.336979667783,-8480.832991699337,7678.181848309261,4232.638088779222,23326.369920536272,16084.829400161434,7236.8019505503125,11635.4464453991,0.0,0.0,0.0,2019-03-17T21:30:52.663216,20,EyesOpen
-19910.46457415397,-8369.923635712104,7714.995171427152,4119.493558346458,23471.11981762884,15620.449557357975,7356.964928742043,11549.012249590427,0.0,0.0,0.0,2019-03-17T21:30:52.663867,20,EyesOpen
-19879.909739483566,-8335.79252192885,7822.037675623617,4324.503758490534,23511.822344281954,15857.623917773239,7411.369074746261,11713.163460870202,0.0,0.0,0.0,2019-03-17T21:30:52.670851,20,EyesOpen
-19981.85604594422,-8432.732037631517,7808.9395533728075,4475.690957986231,23383.23275843057,16362.885101185455,7312.842585187267,11831.62770648333,0.0,0.0,0.0,2019-03-17T21:30:52.671639,20,EyesOpen
-20033.935610525084,-8497.73091050755,7697.739624707655,4285.365853949292,23322.100737345307,16194.531761948081,7248.29074720034,11683.860323889296,0.0,0.0,0.0,2019-03-17T21:30:52.678808,20,EyesOpen
-19922.601571393203,-8387.335644642788,7705.182755611272,4117.504253089935,23452.74668368658,15680.106363309189,7352.963966484544,11559.003479361949,0.0,0.0,0.0,2019-03-17T21:30:52.679551,20,EyesOpen
-19861.35779158566,-8309.640980916141,7813.409902263868,4282.5048306590115,23526.79801306701,15781.627986625193,7430.5692232333695,11690.07410884787,0.0,0.0,0.0,2019-03-17T21:30:52.686686,20,EyesOpen
-19955.57039446478,-8398.779737803905,7820.584812234022,4474.796888208019,23413.07233727841,16318.47218495276,7344.202082658063,11840.791921710006,0.0,0.0,0.0,2019-03-17T21:30:52.687526,20,EyesOpen
-20030.471090134513,-8477.480230031042,7714.592840026956,4334.696153962154,23324.91705714668,16290.241931705707,7254.795104836835,11730.37430410079,0.0,1.028,0.154,2019-03-17T21:30:52.693517,20,EyesOpen
-19939.678304157056,-8388.475583610008,7689.871810659387,4120.38762812467,23428.606799674846,15745.909898985614,7330.612222029236,11564.993746875973,0.0,0.0,0.0,2019-03-17T21:30:52.694206,20,EyesOpen
-19851.97005891443,-8302.935457579548,7794.902657854875,4225.664344509166,23527.155640978293,15704.290950809831,7426.545909231414,11649.93037580614,0.0,0.0,0.0,2019-03-17T21:30:52.701692,20,EyesOpen
-19931.74343487542,-8381.837115506783,7826.1951000923045,4442.185693047725,23432.853631121354,16228.327599564505,7360.228283432518,11817.76962492104,0.0,0.0,0.0,2019-03-17T21:30:52.702335,20,EyesOpen
-20032.43804364658,-8481.190619610623,7726.081636676984,4358.232540873592,23319.485583244037,16331.257382781194,7251.330584446262,11747.696906053652,0.0,0.0,0.0,2019-03-17T21:30:52.709582,20,EyesOpen
-19979.017374398398,-8434.341363232299,7666.603644681412,4114.24089839946,23388.217197444108,15802.616274668728,7294.4470995005495,11553.57200545931,0.0,0.0,0.0,2019-03-17T21:30:52.710225,20,EyesOpen
-19868.17507364453,-8330.517510237398,7763.498456895168,4170.0979077932725,23513.588132093922,15628.42913012852,7408.977438089542,11595.213305379548,0.0,0.0,0.0,2019-03-17T21:30:52.716763,20,EyesOpen
-19913.772632333355,-8378.596112560763,7822.238841323715,4409.239221720603,23447.672837695223,16117.351188343906,7368.453725392071,11778.81053433544,0.0,0.0,0.0,2019-03-17T21:30:52.722800,20,EyesOpen
-20029.465261634025,-8489.259599358988,7740.766732784121,4390.44140463369,23314.61290295278,16354.61495573699,7251.5988053797255,11758.693964325663,0.0,0.0,0.0,2019-03-17T21:30:52.723704,20,EyesOpen
-19993.61306352771,-8451.328689018332,7669.688185416244,4146.762686581932,23360.568089552893,15890.838610033825,7274.978730079977,11569.732316700498,0.0,0.0,0.0,2019-03-17T21:30:52.730898,20,EyesOpen
-19882.681355796023,-8339.391152786155,7748.545139854567,4135.765628309921,23499.819457509453,15587.614844753129,7396.393405961205,11563.853807908752,-0.006,1.028,0.154,2019-03-17T21:30:52.731536,20,EyesOpen
-19912.36447243267,-8364.380403087187,7828.877309426941,4370.794221257475,23470.583375761915,16008.49819284656,7390.626655891736,11749.619156076807,0.0,0.0,0.0,2019-03-17T21:30:52.739070,20,EyesOpen
-20023.96673249802,-8482.77759346695,7763.96784352873,4410.2897537100025,23330.28147581595,16364.181502363863,7272.587093423259,11781.693909370173,0.0,0.0,0.0,2019-03-17T21:30:52.739715,20,EyesOpen
-20017.90940975063,-8475.893256174715,7674.203237796216,4176.44580321858,23345.68182774566,15995.824753740402,7270.553084677826,11604.668093284143,0.0,0.0,0.0,2019-03-17T21:30:52.746251,20,EyesOpen
-19896.42767863604,-8347.951870912537,7730.350819867947,4106.708360518022,23491.97399520564,15594.94621693447,7395.253466993984,11553.594357203765,0.0,0.0,0.0,2019-03-17T21:30:52.746904,20,EyesOpen
-19886.92818724253,-8343.950908655037,7820.897736656397,4327.8788719032855,23494.008003951076,15916.185488246143,7414.565374203369,11727.490929066054,0.0,0.0,0.0,2019-03-17T21:30:52.754309,20,EyesOpen
-20007.024110200895,-8457.810694910371,7777.736518113198,4430.920413842251,23354.689580761147,16362.169845362885,7302.247858315452,11809.857107383861,0.0,0.0,0.0,2019-03-17T21:30:52.754951,20,EyesOpen
-20026.58188659929,-8483.090517889324,7672.8174296399875,4215.918983926652,23329.007426382,16092.808972931978,7263.445229941039,11643.560128636376,0.0,0.0,0.0,2019-03-17T21:30:52.761645,20,EyesOpen
-19906.66477759657,-8364.000423431447,7703.2828573325705,4090.0116074099074,23473.01971590754,15610.011292697347,7382.3788621877275,11548.833435634784,0.0,0.0,0.0,2019-03-17T21:30:52.762283,20,EyesOpen
-19869.985564945408,-8319.475748476476,7806.145585315894,4285.209391738104,23516.4491553842,15813.859202129746,7433.340839545827,11700.870001419784,0.0,0.0,0.0,2019-03-17T21:30:52.769866,20,EyesOpen
-19981.029031399376,-8437.560014433862,7788.443003707291,4436.977736589639,23381.176397940686,16319.969751831264,7325.203099871052,11817.903735387772,-0.002,1.024,0.152,2019-03-17T21:30:52.770501,20,EyesOpen
-20036.59546811527,-8503.251791388011,7684.954426879219,4264.578731605856,23322.95010363461,16186.842761855456,7259.176046750074,11681.066355832381,0.0,0.0,0.0,2019-03-17T21:30:52.776024,20,EyesOpen
-19933.03983605383,-8401.707816327551,7689.938865892753,4086.9494184195305,23452.031427864007,15663.946052068002,7357.277853164417,11545.10069431075,0.0,0.0,0.0,2019-03-17T21:30:52.783912,20,EyesOpen
-19869.918509712043,-8337.826530674283,7794.746195643687,4232.861606223775,23526.663902600278,15727.290895854343,7431.195072078118,11658.669907888165,0.0,0.0,0.0,2019-03-17T21:30:52.784793,20,EyesOpen
-19961.538310234348,-8428.082874784814,7805.743253915698,4423.879614338829,23408.33376745388,16251.796931242578,7340.894024478677,11805.543220703987,0.0,0.0,0.0,2019-03-17T21:30:52.791953,20,EyesOpen
-20034.49440413647,-8497.194468640622,7707.306171334526,4303.247249513537,23318.971493121564,16254.970878955231,7253.521055402882,11708.067263134393,0.0,0.0,0.0,2019-03-17T21:30:52.792742,20,EyesOpen
-19948.931926361554,-8401.75251981646,7679.56765646549,4088.37993006467,23422.370662971814,15718.39490156113,7331.9533266965545,11542.865519865218,0.0,0.0,0.0,2019-03-17T21:30:52.798568,20,EyesOpen
-19865.582271287713,-8317.97818159797,7779.30114022507,4182.59253294379,23524.89811478831,15641.594307612695,7429.943374388621,11615.218116667047,0.0,0.0,0.0,2019-03-17T21:30:52.799210,20,EyesOpen
-19943.500452458913,-8394.309388912843,7820.294239556103,4404.63476236281,23435.155860800252,16163.552244133025,7369.392498659194,11787.95239781766,0.0,0.0,0.0,2019-03-17T21:30:52.805874,20,EyesOpen
-20031.275752934904,-8492.478250560553,7728.205052400238,4341.401677298746,23321.005501867,16310.89494358241,7265.188666008552,11738.644449549252,0.0,0.0,0.0,2019-03-17T21:30:52.806599,20,EyesOpen
-19973.09416211774,-8447.975927350037,7668.704708660211,4101.634514526667,23387.546645110448,15801.141059534677,7308.059311873832,11552.365011258724,-0.004,1.022,0.154,2019-03-17T21:30:52.814100,20,EyesOpen
-19868.666812022544,-8345.2696615779,7761.643262105377,4140.504198134447,23517.857315284888,15596.242618112878,7426.836481909333,11585.467944797034,0.0,0.0,0.0,2019-03-17T21:30:52.814891,20,EyesOpen
-19912.096251499206,-8381.993577717969,7832.252422839692,4382.864163263341,23468.79523620549,16081.27547279304,7403.814185120366,11779.458734924643,0.0,0.0,0.0,2019-03-17T21:30:52.822061,20,EyesOpen
-20019.697549307057,-8483.515201033975,7760.145695226872,4384.160564441749,23339.021007897976,16357.028944138165,7289.216791298008,11778.944644802172,0.0,0.0,0.0,2019-03-17T21:30:52.822761,20,EyesOpen
-19993.724822249987,-8454.748505919993,7682.965121622697,4137.397305655159,23375.63316531577,15911.558677143894,7301.44319551506,11590.452383810567,0.0,0.0,0.0,2019-03-17T21:30:52.828705,20,EyesOpen
-19883.821294763246,-8346.007269144926,7748.321622410014,4104.204965139028,23505.496800601104,15576.550731247751,7412.933696858132,11564.881988153695,0.0,0.0,0.0,2019-03-17T21:30:52.829470,20,EyesOpen
-19900.585103104724,-8356.914920439116,7824.853995424985,4332.95271789464,23479.70288749968,15969.404991794228,7408.016313077965,11745.394676374755,0.0,0.0,0.0,2019-03-17T21:30:52.835904,20,EyesOpen
-20008.834601501778,-8460.492904245008,7768.862875564441,4392.698930823676,23345.257144601008,16352.04450512463,7293.843602400256,11792.75802287555,0.0,0.0,0.0,2019-03-17T21:30:52.836654,20,EyesOpen
-19993.47895306098,-8460.112924589268,7680.0370430990515,4169.114431037239,23354.04138017194,16007.045329456965,7286.2887127743625,11621.476605114533,0.0,0.0,0.0,2019-03-17T21:30:52.843854,20,EyesOpen
-19874.97000395894,-8348.689478479562,7726.9980581996515,4084.7589474629103,23496.042012696507,15579.165885349023,7405.222345021051,11557.796485161363,0.0,0.0,0.0,2019-03-17T21:30:52.851718,20,EyesOpen
-19868.17507364453,-8343.883853421672,7821.948268645796,4298.41927271119,23505.18387617873,15867.972775456044,7427.350572031805,11724.339333097856,-0.008,1.032,0.152,2019-03-17T21:30:52.852425,20,EyesOpen
-19985.700545990534,-8452.848607641294,7790.365253730447,4417.9787538026285,23366.20072915563,16334.230164793751,7313.200213098552,11815.4897469866,0.0,0.0,0.0,2019-03-17T21:30:52.858439,20,EyesOpen
-20014.489592848968,-8476.273235830455,7693.671607216788,4220.970478173552,23339.42333929817,16107.80699346149,7273.5482184348375,11662.313242234379,0.0,0.0,0.0,2019-03-17T21:30:52.859082,20,EyesOpen
-19910.486925898425,-8361.809952474827,7712.759996981621,4074.3653862911924,23476.305422342473,15608.647836285572,7382.535324398915,11551.739162413975,0.0,0.0,0.0,2019-03-17T21:30:52.866334,20,EyesOpen
-19863.45885556446,-8312.16672803959,7819.042541866606,4259.974272248062,23523.109975231884,15777.917597045613,7437.073580869864,11696.422004273178,0.0,0.0,0.0,2019-03-17T21:30:52.867002,20,EyesOpen
-19963.32644979077,-8420.595040392285,7818.260230810671,4434.161416788271,23403.14816274025,16297.930931798332,7342.056315190353,11830.465415771654,0.0,0.0,0.0,2019-03-17T21:30:52.874273,20,EyesOpen
-20022.290351663873,-8496.769785495972,7717.565622039512,4272.379490420758,23335.9588189076,16196.610474182426,7269.368442221695,11704.625094488276,0.0,0.0,0.0,2019-03-17T21:30:52.875091,20,EyesOpen
-19929.620019152168,-8407.765139074938,7700.265371831104,4072.130211845662,23445.437663249693,15655.38533394162,7353.8356845183,11552.09679032526,0.0,0.0,0.0,2019-03-17T21:30:52.881420,20,EyesOpen
-19858.49676829538,-8324.013152600903,7805.072701582039,4209.548736756889,23526.57449562246,15687.43773549053,7436.6712494696685,11658.312279976879,0.0,0.0,0.0,2019-03-17T21:30:52.882074,20,EyesOpen
-19936.012618066386,-8388.542638843375,7832.855919939986,4423.097303282893,23425.432851962192,16229.26637283163,7362.239940433496,11823.737540690607,0.0,0.0,0.0,2019-03-17T21:30:52.889025,20,EyesOpen
-20028.906468022644,-8488.074956902858,7726.461616332725,4307.941115849151,23320.826687911354,16265.766771527145,7261.657090384614,11732.900051224238,-0.004,1.032,0.156,2019-03-17T21:30:52.889891,20,EyesOpen
-19952.66466768559,-8411.497880398974,7695.683264217766,4085.742424218944,23419.531991425993,15735.203413391522,7335.462550576038,11563.920863142117,0.0,0.0,0.0,2019-03-17T21:30:52.896907,20,EyesOpen
-19852.864128692643,-8313.239611773446,7798.836564879009,4171.707233394055,23532.69887360321,15633.57003135324,7444.606118751302,11634.038285498416,0.0,0.0,0.0,2019-03-17T21:30:52.897552,20,EyesOpen
-19917.639484124124,-8374.908074725638,7841.595452022011,4395.872878536329,23445.63882894979,16143.48037761216,7384.301112210884,11806.772566649028,0.0,0.0,0.0,2019-03-17T21:30:52.904063,20,EyesOpen
-20020.81513652982,-8469.053622371392,7755.183607957793,4340.462904031623,23325.364092035783,16317.287542496628,7274.509343446415,11765.377135917799,0.0,0.0,0.0,2019-03-17T21:30:52.911172,20,EyesOpen
-19975.865778430198,-8436.71064814456,7689.916514148297,4086.9941219084412,23387.032554987974,15817.010798097945,7308.774567696401,11574.917921414128,0.0,0.0,0.0,2019-03-17T21:30:52.911984,20,EyesOpen
-19869.27030912284,-8334.160844583612,7772.282692466104,4104.406130839126,23515.286864672526,15577.623614981607,7421.539118473425,11590.161811132648,0.0,0.0,0.0,2019-03-17T21:30:52.918522,20,EyesOpen
-19904.295492684305,-8364.022775175903,7844.0988474010055,4348.017793657517,23469.42108505024,16039.74593159508,7400.349664729794,11780.106935513848,0.0,0.0,0.0,2019-03-17T21:30:52.919291,20,EyesOpen
-20021.44098537457,-8478.039023642425,7765.733631340699,4352.286976848481,23331.84609792782,16329.312781013583,7277.43742197006,11783.079717526403,0.0,0.0,0.0,2019-03-17T21:30:52.926516,20,EyesOpen
-19991.556703037822,-8455.15083732019,7680.797002410532,4104.696703517045,23357.10356916232,15898.348796170807,7282.935951106067,11591.34645358878,0.0,0.0,0.0,2019-03-17T21:30:52.927146,20,EyesOpen
-19869.51617831185,-8330.472806748487,7750.735610811188,4067.905732143609,23500.154733676285,15549.348658245643,7407.256353766484,11563.630290464198,0.0,0.0,0.0,2019-03-17T21:30:52.933613,20,EyesOpen
-19885.162399430563,-8339.748780697439,7841.2825275996365,4302.129662290771,23489.224730637638,15930.49060469754,7414.99005734802,11746.244042664057,-0.008,1.028,0.146,2019-03-17T21:30:52.934261,20,EyesOpen
-20005.839467744765,-8461.856360656782,7785.649035650377,4365.921540966218,23343.938391678144,16323.478975710748,7290.602599454236,11794.367348476333,0.0,0.0,0.0,2019-03-17T21:30:52.941119,20,EyesOpen
-20010.48863059147,-8471.512314261474,7696.577333995979,4141.062991745829,23340.09389163183,15999.110460175332,7271.022471311388,11618.481471357522,0.0,0.0,0.0,2019-03-17T21:30:52.941608,20,EyesOpen
-19893.03021347883,-8354.970318671503,7737.43632286028,4033.5511009158017,23480.55225378898,15550.578004190686,7389.218495991051,11539.177482030093,0.0,0.0,0.0,2019-03-17T21:30:52.949193,20,EyesOpen
-19869.762047500855,-8322.604992700219,7836.611013008477,4242.048173194906,23509.587169836424,15824.74450167948,7430.412761022182,11708.916629423695,0.0,0.0,0.0,2019-03-17T21:30:52.949836,20,EyesOpen
-19988.315700091804,-8443.662040670162,7800.289428268604,4361.33943335288,23369.598194312835,16299.22733297674,7315.122463121708,11807.465470727144,0.0,0.0,0.0,2019-03-17T21:30:52.958547,20,EyesOpen
-20017.216505672517,-8493.68524476114,7698.521935763591,4163.258273989949,23329.320350804373,16094.75357469959,7267.803820109823,11659.698088133107,0.0,0.0,0.0,2019-03-17T21:30:52.959214,20,EyesOpen
-19914.532591644835,-8388.788508032383,7712.2012033702385,4006.013751746864,23461.59797449088,15585.960815663437,7371.471210893537,11540.42917971959,0.0,0.0,0.0,2019-03-17T21:30:52.964895,20,EyesOpen
-19864.464684064948,-8328.975239869982,7821.456530267779,4186.526439967924,23524.22756245465,15732.051817423324,7440.716915216079,11681.714556421586,0.0,0.0,0.0,2019-03-17T21:30:52.970818,20,EyesOpen
-19959.750170677922,-8420.706799114561,7823.334076802025,4369.944854968173,23407.238531975574,16262.436361603304,7351.891082750689,11827.62674422583,0.0,0.0,0.0,2019-03-17T21:30:52.971547,20,EyesOpen
-20028.928819767098,-8485.77272722396,7714.078749904484,4214.935507170619,23328.470984515072,16192.229532269184,7271.067174800298,11707.97785615657,-0.004,1.022,0.156,2019-03-17T21:30:52.978868,20,EyesOpen
-19933.777443620857,-8392.14126970068,7701.472366031691,4014.6862285955226,23446.82347140592,15657.486397920418,7359.289510165395,11555.203682804547,0.0,0.0,0.0,2019-03-17T21:30:52.979932,20,EyesOpen
-19861.69306775249,-8322.157957811112,7806.503213227179,4136.257366687938,23532.855335814398,15653.507787407374,7441.90155767221,11649.013954283471,0.0,0.0,0.0,2019-03-17T21:30:52.986632,20,EyesOpen
-19939.36537973468,-8394.532906357397,7833.146492617905,4346.363764567825,23431.02078807602,16187.669776400302,7368.02904224742,11813.165165563247,0.0,0.0,0.0,2019-03-17T21:30:52.987352,20,EyesOpen
-20031.409863401637,-8480.520067276962,7729.188529156271,4240.662365038677,23321.094908844818,16250.433474830805,7263.333471218762,11726.306286609923,0.0,0.0,0.0,2019-03-17T21:30:52.993505,20,EyesOpen
-19956.33035377626,-8416.594078134785,7693.604551983422,4011.6687430940565,23416.20158150215,15723.73696848595,7331.6627540186355,11549.302822268346,0.0,0.0,0.0,2019-03-17T21:30:52.994155,20,EyesOpen
-19858.96615492894,-8324.281373534366,7795.528506699623,4083.574305006779,23536.051635271506,15591.459344799441,7444.270842584472,11609.406663108668,0.0,0.0,0.0,2019-03-17T21:30:53.001487,20,EyesOpen
-19922.75803360439,-8389.481412110497,7840.500216543701,4309.550441449934,23455.16067208775,16090.149115341797,7385.8433825782995,11785.493705927576,0.0,0.0,0.0,2019-03-17T21:30:53.002157,20,EyesOpen
-20028.191212200072,-8495.49573606202,7749.081581721495,4263.707013572099,23329.163888593186,16285.235140947718,7268.608482910215,11746.691077553163,0.0,0.0,0.0,2019-03-17T21:30:53.009461,20,EyesOpen
-19971.753057450424,-8440.28692725741,7687.033139113562,4021.771731587855,23391.637014345768,15804.493821202974,7308.215774085018,11563.697345697565,0.0,0.0,0.0,2019-03-17T21:30:53.010105,20,EyesOpen
-19868.063314922252,-8328.84112940325,7763.833733061998,4029.6395456361233,23523.311140931983,15542.464320953408,7424.154272574696,11572.772153946418,-0.004,1.016,0.15,2019-03-17T21:30:53.016579,20,EyesOpen
-19908.94465553101,-8359.261853606922,7836.990992664218,4268.51263862999,23484.39675383529,15995.154201406742,7406.22817352154,11763.857217294839,0.0,0.0,0.0,2019-03-17T21:30:53.017499,20,EyesOpen
-20026.894811021666,-8473.367509051264,7761.2185789607265,4285.567019649389,23342.12790037726,16312.951304072298,7283.360634250717,11776.932987801194,0.0,0.0,0.0,2019-03-17T21:30:53.024629,20,EyesOpen
-20006.19709565605,-8463.711555446573,7676.349005263925,4041.933005086542,23366.75952276701,15909.0552817649,7288.367425008706,11594.140421645692,0.0,0.0,0.0,2019-03-17T21:30:53.030792,20,EyesOpen
-19887.59873957619,-8348.644774990651,7733.7482850251545,3984.3996148585816,23506.41322212377,15535.043541794246,7408.485699711526,11553.124970570205,0.0,0.0,0.0,2019-03-17T21:30:53.031446,20,EyesOpen
-19885.90000699759,-8351.863426192216,7822.864690168463,4215.7625217154655,23502.27814939954,15898.773479315458,7425.51772898647,11735.291687880957,0.0,0.0,0.0,2019-03-17T21:30:53.039463,20,EyesOpen
-20001.369118853705,-8476.742622464017,7775.702509367766,4301.459109957113,23366.24543264454,16323.523679199658,7312.842585187267,11804.358578247855,0.0,0.0,0.0,2019-03-17T21:30:53.040188,20,EyesOpen
-20012.120307936708,-8489.661930759185,7680.640540199344,4078.254589826416,23355.069560416887,16022.065701730931,7288.412128497616,11634.06063724287,0.0,0.0,0.0,2019-03-17T21:30:53.046188,20,EyesOpen
-19896.092402469207,-8368.80604848934,7717.09623540595,3960.416193058037,23492.733954517123,15552.880233869582,7403.300094997895,11544.988935588472,0.0,0.0,0.0,2019-03-17T21:30:53.046822,20,EyesOpen
-19876.869902237642,-8338.02769637438,7815.175690075838,4161.53718966689,23518.08083272944,15787.88647507268,7439.085237870841,11698.947751396627,0.0,0.0,0.0,2019-03-17T21:30:53.053540,20,EyesOpen
-19986.23698785746,-8443.237357525511,7795.1485270438825,4307.1588047932155,23388.686584077666,16285.615120603457,7331.97567844101,11810.2370870396,0.002,1.02,0.15,2019-03-17T21:30:53.054192,20,EyesOpen
-20032.952133769053,-8490.354834837299,7689.1342030923615,4118.174805423594,23337.255220086005,16110.310388840484,7271.268340500395,11663.989623068526,0.0,0.0,0.0,2019-03-17T21:30:53.061909,20,EyesOpen
-19919.584085891736,-8379.13255442769,7699.483060775168,3950.424963286515,23465.151901859273,15588.061879642235,7373.460516150059,11533.85776684973,0.0,0.0,0.0,2019-03-17T21:30:53.062576,20,EyesOpen
-19865.939899199,-8325.622478201685,7805.139756815405,4112.6315727986785,23529.591981123922,15699.172401329566,7444.159083862196,11663.900216090706,0.0,0.0,0.0,2019-03-17T21:30:53.068796,20,EyesOpen
-19970.76958069439,-8424.305429971866,7809.945381873296,4298.016941310995,23412.91587506722,16232.082692632997,7355.422658374627,11811.131156817813,0.0,0.0,0.0,2019-03-17T21:30:53.069599,20,EyesOpen
-20032.750968068955,-8488.387881325232,7707.6861509902665,4158.027965787407,23334.23773458454,16196.25284627114,7274.442288213049,11703.55221075442,0.0,0.0,0.0,2019-03-17T21:30:53.076327,20,EyesOpen
-19935.90085934411,-8396.701025569562,7689.916514148297,3948.97209989692,23445.16944231623,15660.48153167743,7359.960062499054,11546.933537356084,0.0,0.0,0.0,2019-03-17T21:30:53.076975,20,EyesOpen
-19861.87188170813,-8322.984972355958,7789.672349652333,4058.4062407501033,23538.577382394957,15631.558374352262,7451.602214765813,11635.73701807702,0.0,0.0,0.0,2019-03-17T21:30:53.083285,20,EyesOpen
-19949.356609506205,-8407.362807674743,7817.701437199287,4272.334786931848,23441.21318354764,16160.154778975819,7382.781193587923,11803.062177069447,0.0,0.0,0.0,2019-03-17T21:30:53.083952,20,EyesOpen
-20034.74027332548,-8498.58027679685,7722.415950586314,4188.694559180089,23339.825670698367,16264.470370348738,7288.278018030885,11738.599746060341,0.0,0.0,0.0,2019-03-17T21:30:53.091126,20,EyesOpen
-19969.316717304795,-8435.794226621894,7669.196447038227,3948.1897888409844,23417.274465236005,15736.186890147555,7339.9328994671,11552.342659514268,0.002,1.016,0.152,2019-03-17T21:30:53.098197,20,EyesOpen
-19874.21004464746,-8328.617611958696,7760.145695226872,4002.035141233819,23534.062330014985,15567.677088698994,7445.969575163076,11595.392119335189,0.0,0.0,0.0,2019-03-17T21:30:53.098509,20,EyesOpen
-19929.485908685438,-8386.799202775861,7811.197079562793,4237.8907487262195,23461.59797449088,16062.097676050387,7398.807394362378,11776.66476686773,0.0,0.0,0.0,2019-03-17T21:30:53.105981,20,EyesOpen
-20038.741235582977,-8503.430605343652,7721.1866046412715,4209.861661179264,23328.8062606819,16290.219579961251,7276.67746265858,11751.742571800063,0.0,0.0,0.0,2019-03-17T21:30:53.106711,20,EyesOpen
-20001.167953153607,-8470.126506105245,7646.710592116188,3959.186847112995,23376.504883349524,15817.636646942694,7300.973808881499,11560.858674151741,0.0,0.0,0.0,2019-03-17T21:30:53.114034,20,EyesOpen
-19886.12352444214,-8349.069458135302,7727.422741344302,3950.5590737532466,23509.87774251434,15527.108672512613,7421.717932429067,11556.924767127606,0.0,0.0,0.0,2019-03-17T21:30:53.114739,20,EyesOpen
-19909.79402182031,-8365.118010654212,7809.766567917653,4192.181431315116,23480.194625877695,15960.687811456659,7412.598420691303,11743.94181298516,0.0,0.0,0.0,2019-03-17T21:30:53.122006,20,EyesOpen
-20026.71599706602,-8486.48798304653,7742.3760583849025,4227.3854288322245,23338.685731731148,16306.357539457982,7293.351864022239,11772.507342399043,0.0,0.0,0.0,2019-03-17T21:30:53.122654,20,EyesOpen
-20017.01533997242,-8486.510334790986,7649.817484595476,3986.187754415006,23348.699313247125,15919.58295340335,7284.500573217938,11587.39019482019,0.0,0.0,0.0,2019-03-17T21:30:53.128801,20,EyesOpen
-19895.779478046832,-8367.643757777663,7706.948543423241,3920.8759571165992,23495.796143507498,15529.589716147151,7409.469176467559,11540.76445588642,0.0,0.0,0.0,2019-03-17T21:30:53.129502,20,EyesOpen
-19888.112829698664,-8350.097638380246,7801.83169863602,4151.9035878066525,23505.474448856647,15869.939728968113,7437.721781459068,11722.79706273044,-0.002,1.02,0.154,2019-03-17T21:30:53.136542,20,EyesOpen
-20008.25345614594,-8463.53274149093,7756.77058181412,4251.167684932671,23366.848929744832,16312.750138372201,7326.074817904809,11800.894057857282,0.0,0.0,0.0,2019-03-17T21:30:53.137191,20,EyesOpen
-20028.459433133536,-8482.196448111112,7660.032231811551,4032.2323479929387,23344.76540622299,16038.22601297212,7292.502497732938,11632.63012559773,0.0,0.0,0.0,2019-03-17T21:30:53.144544,20,EyesOpen
-19902.954388016988,-8361.519379796908,7698.253714830126,3904.067445286208,23486.564873047457,15563.229091552388,7407.234002022029,11536.76349362892,0.0,0.0,0.0,2019-03-17T21:30:53.145324,20,EyesOpen
-19864.285870109306,-8326.091864835247,7803.0163410921505,4097.611200524712,23524.495783388113,15774.16250397712,7454.038554911442,11686.743698924029,0.0,0.0,0.0,2019-03-17T21:30:53.151717,20,EyesOpen
-19981.788990710855,-8440.152816790678,7792.555724687068,4249.0442692094175,23398.163723726717,16280.921254267843,7355.154437441163,11807.219601538134,0.0,0.0,0.0,2019-03-17T21:30:53.159503,20,EyesOpen
-20033.890907036177,-8502.268314631978,7687.435470513758,4067.1681245765835,23337.344627063827,16132.908002484799,7288.769756408901,11666.045983558415,0.0,0.0,0.0,2019-03-17T21:30:53.160233,20,EyesOpen
-19926.311960972784,-8394.219981935023,7691.436432771258,3888.130651489574,23461.73208495761,15599.46126931444,7385.441051178104,11529.745045869953,0.0,0.0,0.0,2019-03-17T21:30:53.167646,20,EyesOpen
-19867.303355610773,-8322.69439967804,7797.1378323004055,4043.4082202205923,23535.783414338042,15677.535912696829,7460.878188714766,11651.517349662465,0.0,0.0,0.0,2019-03-17T21:30:53.168419,20,EyesOpen
-19966.612156225703,-8418.605735135763,7803.597486447989,4234.403876591191,23418.05677629194,16208.68041618829,7371.158286471163,11800.737595646096,0.0,0.0,0.0,2019-03-17T21:30:53.175614,20,EyesOpen
-20038.048331504862,-8502.961218710092,7696.420871784791,4101.031017426374,23326.816955425376,16197.750413149646,7281.572494694293,11697.807812429406,0.002,1.024,0.152,2019-03-17T21:30:53.176300,20,EyesOpen
-19962.499435245925,-8428.664020140652,7657.864112599387,3874.6972530719345,23419.68845363718,15650.199729227988,7348.270100148929,11524.067702778304,0.0,0.0,0.0,2019-03-17T21:30:53.181878,20,EyesOpen
-19872.913643469055,-8329.98106837047,7762.894959794875,3982.7008822799785,23526.79801306701,15594.588589023184,7451.244586854528,11605.897439229184,0.0,0.0,0.0,2019-03-17T21:30:53.182670,20,EyesOpen
-19942.785196636345,-8396.18693544709,7801.563477702556,4208.431149534124,23438.799195146465,16121.262743623585,7391.185449503118,11782.230351237102,0.0,0.0,0.0,2019-03-17T21:30:53.188912,20,EyesOpen
-20034.807328558843,-8497.038006429435,7706.702674234233,4134.20100619805,23324.91705714668,16248.287707363095,7283.561799950815,11720.047798162437,0.0,0.0,0.0,2019-03-17T21:30:53.189578,20,EyesOpen
-19974.927005163074,-8439.236395268012,7655.0924962869285,3892.8245178251887,23401.11415399482,15741.171329161089,7333.40619008615,11538.61868841871,0.0,0.0,0.0,2019-03-17T21:30:53.197528,20,EyesOpen
-19869.158550400563,-8332.640925960652,7751.294404422571,3938.0868003471855,23529.18964972373,15549.683934412473,7452.362174077293,11575.4320115366,0.0,0.0,0.0,2019-03-17T21:30:53.198329,20,EyesOpen
-19929.08357728524,-8390.889572011181,7806.145585315894,4171.930750838608,23463.319058813937,16024.50204187656,7412.106682313286,11757.621080591809,0.0,0.0,0.0,2019-03-17T21:30:53.205541,20,EyesOpen
-20039.769415827923,-8497.306227362898,7723.6229447869,4158.340890209781,23330.773214193967,16283.692870580302,7293.5083262334265,11748.322754898401,0.0,0.0,0.0,2019-03-17T21:30:53.206341,20,EyesOpen
-19997.234046129473,-8455.307299531378,7652.030307296552,3914.3492477356494,23375.543758337946,15837.46264427455,7315.591849755269,11562.847979408263,0.0,0.0,0.0,2019-03-17T21:30:53.212208,20,EyesOpen
-19878.523931327338,-8335.07726610628,7720.7172180077105,3887.147174733541,23509.6989285587,15511.887134538549,7430.546871488914,11544.676011166099,0.002,1.018,0.152,2019-03-17T21:30:53.218470,20,EyesOpen
-19898.394632148105,-8354.36682157121,7801.049387580084,4125.372067138203,23485.46963756915,15922.600438904816,7429.429284266149,11733.212975646613,0.0,0.0,0.0,2019-03-17T21:30:53.219242,20,EyesOpen
-20024.078491220294,-8477.480230031042,7736.7434187821655,4173.987111328496,23343.58076376686,16290.487800894714,7305.8911926616665,11768.774601075007,0.0,0.0,0.0,2019-03-17T21:30:53.226676,20,EyesOpen
-20017.752947539444,-8475.24505558551,7646.375315949359,3937.013916613331,23354.95780169461,15929.10479654131,7294.938837878566,11586.339662830791,0.0,0.0,0.0,2019-03-17T21:30:53.227437,20,EyesOpen
-19898.685204826023,-8371.242388634968,7700.444185786747,3848.7021742704123,23498.41129760877,15508.869649037082,7414.408911992182,11525.18529000107,0.0,0.0,0.0,2019-03-17T21:30:53.233537,20,EyesOpen
-19885.408268619572,-8358.70305999554,7800.691759668799,4070.6549967116116,23513.521076860558,15814.932085863602,7444.226139095562,11698.277199062968,0.0,0.0,0.0,2019-03-17T21:30:53.234191,20,EyesOpen
-20001.458525831524,-8465.633805469728,7762.336166183492,4178.368053241737,23374.58263332637,16270.237120418207,7331.103960407253,11784.487877427087,0.0,0.0,0.0,2019-03-17T21:30:53.241145,20,EyesOpen
-20027.811232544333,-8496.032177928946,7656.7912288655325,3965.2218181159283,23344.09485388933,16021.88688777529,7286.959265108021,11620.336666147312,0.0,0.0,0.0,2019-03-17T21:30:53.241855,20,EyesOpen
-19915.94075154552,-8386.285112653388,7677.958330864708,3824.1152553695747,23482.16157938976,15529.50030916933,7398.628580406736,11510.410786916113,0.0,0.0,0.0,2019-03-17T21:30:53.249151,20,EyesOpen
-19885.408268619572,-8342.74391445445,7779.815230347542,4010.707618082478,23526.686254344735,15713.276352080866,7451.915139188188,11652.478474674044,0.0,0.0,0.0,2019-03-17T21:30:53.249798,20,EyesOpen
-19990.14854313714,-8448.467665728052,7763.2749394506145,4167.7509746254655,23394.363927169317,16227.902916419855,7347.219568159529,11774.675461611208,-0.002,1.028,0.156,2019-03-17T21:30:53.257257,20,EyesOpen
-20037.243668704472,-8503.140032665735,7660.054583556007,4000.001132488386,23329.43210952665,16109.550429529005,7276.699814403036,11643.87305305875,0.0,0.0,0.0,2019-03-17T21:30:53.258210,20,EyesOpen
-19943.52280420337,-8408.972133275525,7652.924377074764,3806.7703016722567,23446.17527081672,15571.052202111747,7367.693766080591,11496.619760587188,0.0,0.0,0.0,2019-03-17T21:30:53.263825,20,EyesOpen
-19882.055506951274,-8342.632155732173,7758.53636962609,3950.4026115420597,23523.26643744307,15621.991827725391,7448.316508330883,11609.20549740857,0.0,0.0,0.0,2019-03-17T21:30:53.264530,20,EyesOpen
-19967.6626882151,-8424.059560782858,7780.955169314763,4154.608148885745,23416.8274303469,16159.618337108892,7370.51008588196,11768.975766775104,0.0,0.0,0.0,2019-03-17T21:30:53.270918,20,EyesOpen
-20045.64792461967,-8505.531669322452,7681.981644866663,4036.1439032726175,23322.99480712352,16182.439468197761,7278.443250470549,11678.4064982422,0.0,0.0,0.0,2019-03-17T21:30:53.278680,20,EyesOpen
-19963.32644979077,-8431.078008541825,7648.230510739149,3812.492348252815,23420.180192015196,15645.61762161465,7348.4489141045715,11509.539068882355,0.0,0.0,0.0,2019-03-17T21:30:53.279486,20,EyesOpen
-19876.691088282,-8337.044219618347,7747.181683442794,3901.586401651669,23526.395681666814,15556.277699026788,7448.383563564249,11581.131706372704,0.0,0.0,0.0,2019-03-17T21:30:53.286599,20,EyesOpen
-19942.718141402976,-8395.13640345769,7790.655826408366,4135.095075976262,23440.341465513884,16079.42027800325,7391.4760221810375,11761.577339360398,0.0,0.0,0.0,2019-03-17T21:30:53.287483,20,EyesOpen
-20030.560497112336,-8490.44424181512,7701.718235220699,4082.4120142951033,23326.19110658063,16242.297439849073,7286.668692430102,11718.75139698403,0.0,0.0,0.0,2019-03-17T21:30:53.293511,20,EyesOpen
-19970.702525461023,-8440.219872024045,7649.571615406468,3845.438819579938,23400.264787705517,15742.668896039593,7336.378972098705,11537.411694218123,-0.002,1.028,0.148,2019-03-17T21:30:53.294164,20,EyesOpen
-19874.522969069836,-8339.525263252886,7736.34108738197,3870.5398286032473,23525.613370610878,15517.810346819204,7449.814075209389,11559.741086928974,0.0,0.0,0.0,2019-03-17T21:30:53.301356,20,EyesOpen
-19917.5500771463,-8377.344414871266,7806.659675438366,4112.296296631849,23473.623213007835,15992.896675216756,7423.930755130144,11748.501568854042,0.0,0.0,0.0,2019-03-17T21:30:53.302061,20,EyesOpen
-20026.470127877015,-8484.990416168024,7732.228366402193,4118.219508912505,23341.09972013232,16280.250701934185,7307.791090940367,11750.647336321752,0.0,0.0,0.0,2019-03-17T21:30:53.309095,20,EyesOpen
-19996.272921117892,-8454.882616386725,7658.244092255127,3878.072366484686,23381.0199357295,15849.443179302596,7327.415922572127,11569.128819600204,0.0,0.0,0.0,2019-03-17T21:30:53.309474,20,EyesOpen
-19883.441315107502,-8342.945080154548,7730.686096034778,3842.197816633918,23523.66876884327,15510.300160682222,7451.088124643341,11544.698362910553,0.0,0.0,0.0,2019-03-17T21:30:53.316468,20,EyesOpen
-19897.16528620306,-8355.707926238529,7813.789881919609,4078.008720637408,23509.184838436227,15898.929941526645,7454.530293289458,11724.719312753596,0.0,0.0,0.0,2019-03-17T21:30:53.317143,20,EyesOpen
-20011.33799688077,-8474.753317207495,7755.138904468883,4143.879311547197,23372.660383303213,16292.65592010688,7337.697725021569,11772.015604021026,0.0,0.0,0.0,2019-03-17T21:30:53.324113,20,EyesOpen
-20026.29131392137,-8493.618189527773,7648.476379928158,3899.4182824395043,23359.67401977468,15943.767540903991,7307.120538606709,11582.897494184674,0.0,0.0,0.0,2019-03-17T21:30:53.324858,20,EyesOpen
-19911.112774743175,-8376.51740032642,7685.468517001691,3796.8684788785554,23500.40060286529,15501.761794300295,7422.8802231407435,11508.71205433751,0.0,0.0,0.0,2019-03-17T21:30:53.331010,20,EyesOpen
-19873.02540219133,-8338.005344629926,7798.97067534574,4032.5005689264026,23536.94570504972,15802.146888035166,7473.8869039877545,11694.343292038833,-0.006,1.026,0.148,2019-03-17T21:30:53.331647,20,EyesOpen
-19986.974595424486,-8453.116828574757,7769.421669175825,4160.754878610955,23401.024747016996,16279.624853089435,7364.519818367937,11792.310987986444,0.0,0.0,0.0,2019-03-17T21:30:53.339250,20,EyesOpen
-20029.040578489374,-8483.939884178626,7660.702784145211,3954.8282569442104,23353.10260690482,16053.000516057076,7309.333361307784,11632.361904664267,0.0,0.0,0.0,2019-03-17T21:30:53.345517,20,EyesOpen
-19923.74151036042,-8364.693327509562,7673.666795929289,3794.789766644212,23482.653317767777,15537.479881939875,7412.978400347042,11512.668313106098,0.0,0.0,0.0,2019-03-17T21:30:53.346165,20,EyesOpen
-19879.239187149906,-8315.944172852538,7778.384718702402,3968.6863385065008,23535.917524804776,15689.337633769232,7472.389337109249,11653.059620029882,0.0,0.0,0.0,2019-03-17T21:30:53.353568,20,EyesOpen
-19978.257415086915,-8422.450235182076,7771.656843621355,4138.96192776703,23411.463011677624,16208.21102955473,7376.276835951428,11784.644339638275,0.0,0.0,0.0,2019-03-17T21:30:53.354366,20,EyesOpen
-20033.041540746875,-8477.904913175693,7672.124525561872,3984.5337253253133,23343.111377133297,16125.9566099592,7306.49468976196,11661.977966067549,0.0,0.0,0.0,2019-03-17T21:30:53.361612,20,EyesOpen
-19939.544193690326,-8381.971225973515,7663.496752202124,3788.754795641279,23461.59797449088,15592.956911677948,7398.114490284263,11512.37774042818,0.0,0.0,0.0,2019-03-17T21:30:53.362505,20,EyesOpen
-19861.35779158566,-8312.189079784046,7769.220503475726,3922.641744928568,23549.887365089344,15614.436938099498,7486.537991349458,11617.274477156936,0.0,0.0,0.0,2019-03-17T21:30:53.368949,20,EyesOpen
-19947.076731571764,-8404.501784384463,7791.728710142221,4133.753971308944,23444.32007602693,16151.124674215875,7407.7927956334115,11779.123458757813,0.0,0.0,0.0,2019-03-17T21:30:53.369733,20,EyesOpen
-20030.58284885679,-8486.666797002174,7689.111851347906,4030.3100979697824,23340.876202687767,16201.39374749586,7310.070968874809,11691.616379215286,-0.006,1.03,0.148,2019-03-17T21:30:53.376292,20,EyesOpen
-19958.163196821595,-8405.798185562871,7656.388897465336,3811.1512435854966,23434.798232888967,15672.685584150027,7378.489658652504,11522.212507988514,0.0,0.0,0.0,2019-03-17T21:30:53.376960,20,EyesOpen
-19863.525910797824,-8317.665257175597,7761.889131294386,3897.4513289274373,23552.211946512696,15559.518701972807,7487.38735763876,11592.128764644714,0.0,0.0,0.0,2019-03-17T21:30:53.384383,20,EyesOpen
-19930.31292323028,-8387.112127198236,7808.559573717067,4127.428427628091,23470.963355417654,16069.071420320442,7434.056095368397,11772.552045887953,0.0,0.0,0.0,2019-03-17T21:30:53.385067,20,EyesOpen
-20035.813157059332,-8494.713425006083,7714.86106096042,4072.7113572015,23346.48649054605,16251.819282987033,7320.241012601974,11730.284897122967,0.0,0.0,0.0,2019-03-17T21:30:53.392459,20,EyesOpen
-19977.072772630785,-8437.604717922773,7661.574502178968,3831.781903717745,23419.464936192624,15767.658146340627,7367.447896891582,11549.772208901908,0.0,0.0,0.0,2019-03-17T21:30:53.393186,20,EyesOpen
-19865.045829420786,-8326.203623557523,7745.237081675182,3843.8071422347,23550.60262091191,15513.138832228045,7483.72167154809,11560.411639262635,0.0,0.0,0.0,2019-03-17T21:30:53.398569,20,EyesOpen
-19891.063259966762,-8354.433876804576,7817.50027149919,4087.5976190087345,23508.357823891383,15971.327241817386,7463.448639327126,11750.334411899377,0.0,0.0,0.0,2019-03-17T21:30:53.405826,20,EyesOpen
-20007.515848578914,-8467.86897991526,7741.481988606691,4103.62381978319,23365.798397755432,16282.396469401894,7340.2905273783845,11759.073943981402,0.0,0.0,0.0,2019-03-17T21:30:53.406583,20,EyesOpen
-19989.545046036845,-8442.902081358681,7655.606586409401,3860.7274127873675,23389.20067420014,15865.290566121408,7346.079629192309,11571.676918468109,0.0,0.0,0.0,2019-03-17T21:30:53.413874,20,EyesOpen
-19871.058448679265,-8320.034542087858,7722.14772965285,3818.370857044561,23535.42578642676,15503.63934083454,7472.09876443133,11541.636173920177,-0.004,1.034,0.15,2019-03-17T21:30:53.414739,20,EyesOpen
-19875.126466170128,-8324.259021789912,7812.918163885852,4061.736650673944,23529.86020205739,15880.75797328448,7486.694453560645,11730.37430410079,0.0,0.0,0.0,2019-03-17T21:30:53.421946,20,EyesOpen
-19992.607235027222,-8436.91181384466,7761.553855127556,4145.332174936792,23390.43002014518,16300.70254811079,7373.348757427783,11792.467450197631,0.0,0.0,0.0,2019-03-17T21:30:53.422618,20,EyesOpen
-20004.230142143984,-8464.382107780231,7660.591025422934,3920.1159978051187,23378.494188606048,15989.834486226378,7350.393515872182,11618.816747524352,0.0,0.0,0.0,2019-03-17T21:30:53.430114,20,EyesOpen
-19893.611358834667,-8356.959623928025,7687.413118769303,3800.46710973586,23511.151791948294,15522.906544555015,7458.218331124584,11527.4204644466,0.0,0.0,0.0,2019-03-17T21:30:53.430923,20,EyesOpen
-19866.83396897721,-8332.93149863857,7789.895867096886,4006.8184145472546,23543.47241443067,15774.028393510389,7496.685683332167,11687.4589547466,0.0,0.0,0.0,2019-03-17T21:30:53.438012,20,EyesOpen
