eeg1,eeg2,eeg3,eeg4,eeg5,eeg6,eeg7,eeg8,accx,accy,accz,iso_utc,session_id,command_name
0.0,0.0,0.0,0.0,0.0,0.0,0.0,0.0,0.0,0.0,0.0,2019-03-17T21:16:26.658923,4,EyesOpen
4132.479921874991,9873.994871854171,-5797.595476817546,-6395.482289252554,33681.150815624096,-3575.206229115275,6221.0269237788825,4690.200649523813,-0.004,0.998,0.254,2019-03-17T21:16:26.665266,4,EyesOpen
3650.8445323520345,9378.791973446843,-6282.963607664538,-6883.175001522899,33401.91047214394,-3213.06326545039,5784.877334222476,4303.202546024626,0.0,0.0,0.0,2019-03-17T21:16:26.665863,4,EyesOpen
3418.989887117134,9141.52820605376,-6575.3020733955,-7165.969272371444,33101.43597143125,-3617.831005791546,5508.632124499336,3998.257696420872,0.0,0.0,0.0,2019-03-17T21:16:26.673430,4,EyesOpen
3887.9294857894765,9610.937191359662,-6115.750207394387,-6704.383397624898,33355.68706461037,-4028.2090339909837,5925.961545224374,4361.965282197629,0.0,0.0,0.0,2019-03-17T21:16:26.674259,4,EyesOpen
4155.993957041974,9891.272770318124,-5783.111546410507,-6383.92643736916,33676.680466733036,-3692.9775706502883,6230.012325049916,4697.26380077169,0.0,0.0,0.0,2019-03-17T21:16:26.679493,4,EyesOpen
3731.556681580148,9466.902550089664,-6190.337978641746,-6795.466756280274,33472.49728113381,-3233.5374633714514,5857.5652071911345,4392.140137212293,0.0,0.0,0.0,2019-03-17T21:16:26.687530,4,EyesOpen
3380.388424442819,9129.055932647698,-6593.094061981924,-7191.025577905843,33115.517570438096,-3521.2044145112536,5486.213324810663,4002.5715831007465,0.0,0.0,0.0,2019-03-17T21:16:26.688310,4,EyesOpen
3772.3709669555387,9530.985001443029,-6229.967621561006,-6818.042018180135,33290.710543478795,-4007.712484325467,5828.463235910325,4274.704071844109,-0.004,1.002,0.242,2019-03-17T21:16:26.694837,4,EyesOpen
4177.719852652533,9932.176462671336,-5767.219456102784,-6367.363794727778,33690.56090003978,-3763.072641262131,6255.538017217877,4712.619449212486,0.0,0.0,0.0,2019-03-17T21:16:26.695398,4,EyesOpen
3837.816874720678,9579.242417722036,-6075.382956908102,-6689.899467217859,33568.14039565807,-3252.782315347471,5973.861333592097,4495.628714040365,0.0,0.0,0.0,2019-03-17T21:16:26.702213,4,EyesOpen
3386.8927820793133,9123.535051767238,-6568.9318262257375,-7175.155839342576,33169.407626319844,-3417.3358580274416,5521.640839772325,4039.7872376188325,0.0,0.0,0.0,2019-03-17T21:16:26.702871,4,EyesOpen
3668.1224308159867,9395.62283702169,-6332.7856460554185,-6926.492682277284,33233.311263717565,-3958.136315123596,5737.603394699502,4189.365111513747,0.0,0.0,0.0,2019-03-17T21:16:26.709573,4,EyesOpen
4153.244692473972,9868.898674118362,-5819.991924761764,-6417.4317023076665,33641.20824828246,-3868.304654157717,6211.2815631963695,4655.086058984525,0.0,0.0,0.0,2019-03-17T21:16:26.710144,4,EyesOpen
3950.5143702643363,9659.239311127581,-5986.04303432024,-6593.943428271226,33640.15771629306,-3317.580022523406,6064.967043991929,4568.115421308926,0.0,0.0,0.0,2019-03-17T21:16:26.717668,4,EyesOpen
3436.6030617479164,9166.00336623232,-6518.282773290011,-7120.908155549545,33245.403557467886,-3332.0192494415346,5578.123698010886,4091.330360332771,0.0,0.0,0.0,2019-03-17T21:16:26.718224,4,EyesOpen
3584.28103736413,9329.260507733883,-6418.616344763797,-7006.3554652160965,33206.4891703712,-3883.593247365147,5673.051556712575,4122.8463200147535,0.0,0.0,0.0,2019-03-17T21:16:26.725557,4,EyesOpen
4123.874500259698,9872.542008464576,-5848.557454175646,-6444.253795654035,33624.600902152175,-3921.5241577058027,6196.529411855867,4620.932593456816,0.0,0.0,0.0,2019-03-17T21:16:26.726038,4,EyesOpen
4036.6579933950898,9787.851248723418,-5883.850858670576,-6490.52190667652,33717.8076765308,-3377.281531963531,6171.2495888769145,4649.118143214959,0.0,1.012,0.234,2019-03-17T21:16:26.732244,4,EyesOpen
3506.9887050376783,9247.274309071816,-6444.27614739849,-7046.499198257828,33325.9145409959,-3257.364422960809,5652.934986702799,4162.341852467282,0.0,0.0,0.0,2019-03-17T21:16:26.732883,4,EyesOpen
3509.425045183307,9255.767971964833,-6491.818307854928,-7079.713890518415,33179.532966558094,-3789.782975886223,5603.2247070341955,4060.0826215842512,0.0,0.0,0.0,2019-03-17T21:16:26.739465,4,EyesOpen
4042.3800399756483,9800.770557018586,-5937.3385831521255,-6523.513081492553,33557.43391006398,-3978.364643855649,6112.620963170643,4534.788970326063,0.0,0.0,0.0,2019-03-17T21:16:26.747127,4,EyesOpen
4122.354581636737,9871.938511364284,-5806.96085774432,-6409.720350470585,33764.50047069794,-3458.8430474809466,6230.23584249447,4705.221021797779,0.0,0.0,0.0,2019-03-17T21:16:26.747633,4,EyesOpen
3589.0419589331104,9317.056455261285,-6349.281233463435,-6958.522732081739,33411.65583272646,-3210.269297393477,5729.489711462225,4248.88780699823,0.0,0.0,0.0,2019-03-17T21:16:26.754526,4,EyesOpen
3435.77604720307,9176.776907059779,-6554.984337685626,-7157.006222844866,33163.01502740563,-3700.0630736426206,5537.778799269056,4011.132301227129,0.0,0.0,0.0,2019-03-17T21:16:26.755143,4,EyesOpen
3953.554207510258,9694.979750511617,-6028.8466249521525,-6633.304850257022,33496.48070293435,-4014.6862285955226,6016.083778868173,4440.598719191399,0.0,0.0,0.0,2019-03-17T21:16:26.761819,4,EyesOpen
4156.8880268201865,9888.322340050023,-5769.029947403664,-6383.792326902429,33800.10679961524,-3575.250932604186,6260.075421342304,4718.8108824266055,0.0,0.0,0.0,2019-03-17T21:16:26.762364,4,EyesOpen
3679.9688553772994,9410.665561040112,-6247.625499680698,-6861.650271612439,33530.12007833959,-3191.873811706759,5830.96663128932,4340.4405522871675,0.0,0.0,0.0,2019-03-17T21:16:26.769933,4,EyesOpen
3400.415587474774,9140.030639175253,-6585.092137466924,-7186.711691225969,33205.8856732709,-3591.4559473342833,5525.753560752101,3999.6882080660116,0.006,1.01,0.228,2019-03-17T21:16:26.770410,4,EyesOpen
3848.52336031477,9588.98777830455,-6152.965861912473,-6746.896415578892,33443.41766159745,-4025.3927141896147,5920.753588766288,4337.1548458522375,0.0,0.0,0.0,2019-03-17T21:16:26.777781,4,EyesOpen
4163.258273989949,9898.335921566,-5776.584837029557,-6382.808850146395,33800.84440718227,-3692.1952595943526,6266.468020256522,4704.93044911986,0.0,0.0,0.0,2019-03-17T21:16:26.778239,4,EyesOpen
3746.7335160653015,9475.73148914951,-6163.761754484386,-6779.3064450390875,33613.84971306917,-3224.261489422499,5914.092768918606,4411.720265355142,0.0,0.0,0.0,2019-03-17T21:16:26.784474,4,EyesOpen
3378.801450586492,9112.403883028494,-6583.594570588419,-7189.840935449713,33251.10325230399,-3488.503812373139,5524.814787484978,4011.646391349601,0.0,0.0,0.0,2019-03-17T21:16:26.784930,4,EyesOpen
3756.948263281377,9493.255256802471,-6241.679935655587,-6842.137198702955,33405.03971636769,-3992.580353329224,5835.906366813942,4259.102554214305,0.0,0.0,0.0,2019-03-17T21:16:26.792475,4,EyesOpen
4189.968608614041,9931.371799870945,-5758.681089720856,-6370.671852907164,33823.5314278044,-3775.5449146681926,6283.790622209385,4712.328876534567,0.0,0.0,0.0,2019-03-17T21:16:26.793000,4,EyesOpen
3867.2541221683173,9601.974141833085,-6048.091476928173,-6668.285330329577,33732.09044123774,-3258.303196227932,6025.516215028312,4519.65683932982,0.0,0.0,0.0,2019-03-17T21:16:26.799697,4,EyesOpen
3426.120093598377,9149.194854401929,-6547.362392826366,-7165.879865393623,33339.079718480076,-3394.090043793922,5563.14802922583,4060.484952984447,0.0,0.0,0.0,2019-03-17T21:16:26.807576,4,EyesOpen
3657.7959248776347,9402.127194658184,-6344.006221771982,-6959.372098371041,33371.40034096246,-3956.9963761563754,5741.291432534627,4172.757765383454,0.0,0.0,0.0,2019-03-17T21:16:26.808266,4,EyesOpen
4155.278701219404,9909.95882868276,-5797.3943111174485,-6422.013809921004,33802.74430546097,-3881.559238619714,6241.7469908889525,4662.082154999037,0.004,1.008,0.234,2019-03-17T21:16:26.813930,4,EyesOpen
3960.5056000358586,9710.178936741226,-5931.907109249486,-6567.210741902679,33827.71120401755,-3321.1339498918,6121.204033041481,4604.414654304344,0.0,0.0,0.0,2019-03-17T21:16:26.814384,4,EyesOpen
3440.313451327497,9164.192874931441,-6483.9951972955705,-7114.113225235132,33417.64610024048,-3318.876423701814,5610.310210026528,4109.368218108203,0.0,0.0,0.0,2019-03-17T21:16:26.822136,4,EyesOpen
3548.451191002273,9273.537608806802,-6431.826225736884,-7044.174616834476,33343.08068073758,-3885.6049043661246,5658.3441088609825,4093.4761278004803,0.0,0.0,0.0,2019-03-17T21:16:26.822906,4,EyesOpen
4096.7171307465,9827.771464320596,-5864.002509594263,-6474.0710227574145,33765.68511315407,-3949.843817930677,6190.7403100419415,4597.060930378549,0.0,0.0,0.0,2019-03-17T21:16:26.830215,4,EyesOpen
4048.7055836565,9788.164173145793,-5858.928663602908,-6480.910656560738,33897.26983276246,-3394.380616471841,6206.341827671747,4667.178352734846,0.0,0.0,0.0,2019-03-17T21:16:26.830747,4,EyesOpen
3503.211260224731,9244.279175314805,-6417.811681963406,-7041.5147592442945,33514.63031943206,-3249.518960656996,5696.275019201639,4188.1134138242505,0.0,0.0,0.0,2019-03-17T21:16:26.837515,4,EyesOpen
3497.377454921896,9225.950744861453,-6488.979636309104,-7105.418396642018,33353.45189016484,-3772.013339044254,5629.331544557995,4064.7541361754106,0.0,0.0,0.0,2019-03-17T21:16:26.838156,4,EyesOpen
4037.485007939936,9767.891140924829,-5942.345373910114,-6560.102887165891,33719.2605399204,-3991.5074695953695,6129.965916867962,4524.5742231099875,0.0,0.0,0.0,2019-03-17T21:16:26.844665,4,EyesOpen
4116.409017611625,9854.95118557825,-5796.500241339236,-6425.1207024002915,33937.19004835964,-3491.1413182188653,6271.251293569958,4711.725379434273,0.0,0.0,0.0,2019-03-17T21:16:26.845248,4,EyesOpen
3590.181897900331,9327.248850732905,-6323.084988961815,-6954.365307613052,33603.32204143072,-3210.582221815851,5789.884124980465,4276.425156167168,0.004,1.016,0.228,2019-03-17T21:16:26.854489,4,EyesOpen
3457.63605328036,9185.96347403091,-6521.657886702763,-7144.55630118326,33366.03592229318,-3653.8843695979563,5607.896221625355,4051.4548482245027,0.0,0.0,0.0,2019-03-17T21:16:26.855140,4,EyesOpen
3970.742698996389,9703.20519247117,-6019.5706510032005,-6643.117266072902,33674.937030665526,-4002.035141233819,6064.743526547376,4460.603530478898,0.0,0.0,0.0,2019-03-17T21:16:26.860565,4,EyesOpen
4191.130899325717,9928.801349258585,-5744.42067675837,-6386.139260070237,33968.97422897509,-3593.087624679521,6314.792491768896,4747.957557196326,0.0,0.0,0.0,2019-03-17T21:16:26.861121,4,EyesOpen
3710.5460417921595,9450.652831870655,-6203.078472981271,-6852.64251859695,33714.27610090686,-3192.0749774068568,5897.708940232867,4383.378253385813,0.0,0.0,0.0,2019-03-17T21:16:26.866833,4,EyesOpen
3403.7683491430703,9139.494197308326,-6559.72290751015,-7202.223801877953,33370.01453280622,-3572.6804819918257,5566.76901182759,4022.710504854978,0.0,0.0,0.0,2019-03-17T21:16:26.874295,4,EyesOpen
3851.5631975606916,9590.261827738505,-6127.082541833227,-6765.5154187101625,33603.41144840854,-4009.1429959706065,5967.3346242111475,4359.797162985464,0.0,0.0,0.0,2019-03-17T21:16:26.874872,4,EyesOpen
4179.128012553217,9923.571041056042,-5733.13304580844,-6387.368606015278,33965.84498475135,-3701.8065097101344,6329.656401831675,4740.983812926271,0.0,0.0,0.0,2019-03-17T21:16:26.882516,4,EyesOpen
3785.7149583953574,9519.473853048547,-6105.200184011482,-6769.024642589646,33792.373096033705,-3223.7250475555716,5988.501726210324,4463.397498535812,0.0,0.0,0.0,2019-03-17T21:16:26.883131,4,EyesOpen
3401.868450864369,9134.800330972712,-6544.72488698064,-7200.301551854796,33421.06591714214,-3468.320187129997,5582.9740265576875,4046.2468917664164,0.0,0.0,0.0,2019-03-17T21:16:26.889754,4,EyesOpen
3744.4536381308603,9487.935541622108,-6230.548766916843,-6875.307187474631,33554.50583154033,-3983.773766013833,5874.217256810339,4274.838182310842,-0.008,1.02,0.23,2019-03-17T21:16:26.890678,4,EyesOpen
4176.266989262937,9924.085131178515,-5750.477999505759,-6404.579449245864,33956.12197591329,-3807.5973162171026,6317.7652737814515,4725.337591807555,0.0,0.0,0.0,2019-03-17T21:16:26.896973,4,EyesOpen
3883.593247365147,9626.203432822638,-6005.176127573983,-6665.93839716177,33880.12604476524,-3271.8260016233926,6088.883410559108,4561.767525883619,0.0,0.0,0.0,2019-03-17T21:16:26.897395,4,EyesOpen
3408.5292707120507,9140.991764186832,-6530.084494362413,-7179.246208577897,33465.88116477503,-3387.898610579802,5603.58233494548,4083.909581173609,0.0,0.0,0.0,2019-03-17T21:16:26.905238,4,EyesOpen
3661.573369690582,9387.933836929064,-6331.399837899189,-6962.94837748389,33510.562301941194,-3918.5290239487917,5794.198011660339,4209.034646634418,0.0,0.0,0.0,2019-03-17T21:16:26.905882,4,EyesOpen
4173.651835161667,9911.076415905525,-5768.024118903175,-6405.048835879426,33944.834344963354,-3856.257063896306,6311.216212656047,4714.675809702374,0.0,0.0,0.0,2019-03-17T21:16:26.913320,4,EyesOpen
3996.894240009098,9738.096265565904,-5888.477669772825,-6533.683125219718,33972.170528432194,-3303.8113479389367,6201.290333424847,4669.97232079176,0.0,0.0,0.0,2019-03-17T21:16:26.913958,4,EyesOpen
3474.533972088572,9211.466814454416,-6442.264490397512,-7082.776079508792,33567.29102936877,-3271.378966734286,5688.4519086422815,4183.799527144376,0.0,0.0,0.0,2019-03-17T21:16:26.920438,4,EyesOpen
3566.8466766889906,9306.193507456006,-6406.546402757932,-7037.357334775607,33474.95597302389,-3830.887833939533,5712.100054275997,4155.748087852966,0.0,0.0,0.0,2019-03-17T21:16:26.921074,4,EyesOpen
4108.831776241276,9855.644089656364,-5838.4321139373915,-6479.1225170043135,33875.767454596455,-3938.422076514015,6228.045371537849,4646.212416435768,0.0,0.0,0.0,2019-03-17T21:16:26.927029,4,EyesOpen
4090.682159743567,9833.85113881244,-5801.864660008509,-6450.355821890334,34025.34532849137,-3396.1464042838106,6272.927674404106,4742.883711204971,-0.008,1.018,0.222,2019-03-17T21:16:26.935520,4,EyesOpen
3564.142115609898,9287.79802176929,-6354.645652132708,-6998.95703780139,33660.67661770304,-3215.052570706913,5771.578046271568,4277.185115478649,0.0,0.0,0.0,2019-03-17T21:16:26.936314,4,EyesOpen
3496.5504403770497,9215.087797056174,-6489.605485153853,-7123.657420117548,33463.42247288495,-3755.562455125148,5643.100219142463,4101.545107548846,0.0,0.0,0.0,2019-03-17T21:16:26.942953,4,EyesOpen
4022.352876943693,9757.966966386672,-5945.251100689305,-6579.593608330919,33837.4342128556,-4002.750397056389,6146.640318231621,4559.778220627096,0.0,0.0,0.0,2019-03-17T21:16:26.943603,4,EyesOpen
4162.677128634111,9900.682854733808,-5740.196197056317,-6387.547419970921,34109.94668125471,-3488.54851586205,6348.364811940767,4801.557040400153,0.0,0.0,0.0,2019-03-17T21:16:26.949451,4,EyesOpen
3654.7784393761685,9380.580113003269,-6249.748915403952,-6906.5102227342395,33793.66949721211,-3179.7144627230723,5877.97234987883,4380.740747540087,0.0,0.0,0.0,2019-03-17T21:16:26.950086,4,EyesOpen
3457.121963157888,9187.48339265387,-6506.391645239788,-7157.006222844866,33504.75084838281,-3644.3848782044506,5631.365553303427,4098.8405464697535,0.0,0.0,0.0,2019-03-17T21:16:26.957660,4,EyesOpen
3944.479399261403,9685.368500395834,-6026.678505739988,-6673.873266443404,33776.101026070246,-4017.7484175859,6070.554980105756,4484.654007512809,0.0,0.0,0.0,2019-03-17T21:16:26.958497,4,EyesOpen
4204.184318087616,9950.460189635776,-5706.154490250885,-6364.569826670865,34092.98170721313,-3598.608505559982,6372.392937230223,4816.867985352038,0.0,0.0,0.0,2019-03-17T21:16:26.965603,4,EyesOpen
3727.7345332782907,9475.485619960502,-6157.235045103436,-6819.092550169534,33842.642169313694,-3180.228552845544,5964.920635809975,4467.733736960142,0.0,0.0,0.0,2019-03-17T21:16:26.966412,4,EyesOpen
3415.8829946378464,9140.656488020002,-6531.872633918838,-7177.547475999293,33489.81988308667,-3527.5076064476502,5623.16246308833,4102.95326744953,-0.008,1.004,0.23,2019-03-17T21:16:26.972543,4,EyesOpen
3841.8401887226332,9571.374603673768,-6140.02420187285,-6772.958549613781,33688.057504660785,-3995.4637283639586,5990.04399657774,4409.082759509416,0.0,0.0,0.0,2019-03-17T21:16:26.973535,4,EyesOpen
4207.6041349892785,9947.509759367676,-5709.730769363734,-6352.611643387276,34080.397675084794,-3697.5820300080813,6388.709710682597,4827.038029079203,0.0,0.0,0.0,2019-03-17T21:16:26.980066,4,EyesOpen
3835.2911275972283,9564.333804170348,-6052.539474074778,-6703.601086568962,33930.12689711176,-3196.455919320097,6075.24884644137,4580.6323982038975,0.0,0.0,0.0,2019-03-17T21:16:26.980702,4,EyesOpen
3409.9597823571903,9132.162825126985,-6536.991183399104,-7180.207333589475,33518.96655785639,-3440.2463960941313,5620.346143286961,4122.756913036932,0.0,0.0,0.0,2019-03-17T21:16:26.987176,4,EyesOpen
3717.6762482734025,9460.040564541885,-6257.013232351927,-6891.26633301572,33614.877893314115,-3981.6279985461238,5871.713861431344,4315.116025819305,0.0,0.0,0.0,2019-03-17T21:16:26.995125,4,EyesOpen
4179.977378842518,9931.416503359855,-5742.073743590563,-6384.842858891829,34040.8350873989,-3813.855804664589,6350.175303241647,4795.969104286326,0.0,0.0,0.0,2019-03-17T21:16:26.995877,4,EyesOpen
3949.106210363652,9690.710567320653,-5937.495045363313,-6588.690768324229,34021.031441811494,-3239.617137863295,6177.7092430244975,4691.765271635684,0.0,0.0,0.0,2019-03-17T21:16:27.001548,4,EyesOpen
3439.39702980483,9173.848828536133,-6483.503458917554,-7130.474702176417,33593.353163403655,-3342.256348402065,5668.514152588147,4197.277629050926,0.0,0.0,0.0,2019-03-17T21:16:27.002368,4,EyesOpen
3620.110883725987,9364.844484906733,-6344.810884572374,-6977.119383468555,33582.64667780956,-3916.495015203359,5797.662532050912,4264.355214161303,0.0,0.0,0.0,2019-03-17T21:16:27.009830,4,EyesOpen
4144.862788303231,9887.540028994088,-5785.86081097851,-6423.086693654859,34018.036308054485,-3895.2161544819064,6315.686561547108,4771.51629585222,-0.004,1.002,0.232,2019-03-17T21:16:27.010543,4,EyesOpen
4008.1818709590284,9742.767780157064,-5873.8819806435085,-6523.222508814634,34068.50654703457,-3343.1951216691878,6240.964679833017,4760.832162002584,0.0,0.0,0.0,2019-03-17T21:16:27.017580,4,EyesOpen
3490.090786229466,9215.735997645379,-6428.048780923937,-7076.271721872297,33664.431710771525,-3282.487783728574,5731.546071952113,4279.643807368732,0.0,0.0,0.0,2019-03-17T21:16:27.018564,4,EyesOpen
3534.3695919954293,9266.876788959122,-6434.597842049342,-7072.4495735704395,33541.117136611596,-3846.824627736167,5720.571365424557,4217.505957782979,0.0,0.0,0.0,2019-03-17T21:16:27.025036,4,EyesOpen
4081.450889283525,9822.94348751825,-5861.677928170911,-6502.167165537735,33944.990807174545,-3968.485172806403,6247.066706069316,4714.720513191284,0.0,0.0,0.0,2019-03-17T21:16:27.026014,4,EyesOpen
4111.134005920173,9851.017278554116,-5776.897761451932,-6428.60757453532,34124.40825991729,-3412.8878608808354,6330.505768120977,4855.894131171004,0.0,0.0,0.0,2019-03-17T21:16:27.032383,4,EyesOpen
3545.2325398007083,9279.684338532012,-6349.884730563728,-7000.81223259118,33731.553999370815,-3232.7551523155157,5807.229078677783,4371.1965526576705,0.0,0.0,0.0,2019-03-17T21:16:27.033021,4,EyesOpen
3448.471838053684,9190.67969211098,-6501.027226570514,-7141.963498826444,33504.88495884954,-3757.305891192662,5661.898036229377,4179.619750931233,0.0,0.0,0.0,2019-03-17T21:16:27.040459,4,EyesOpen
3998.6823795655228,9740.174977800249,-5943.373554155059,-6586.58970434543,33867.27379170344,-4006.12551046914,6169.774373742864,4648.20172169229,0.0,0.0,0.0,2019-03-17T21:16:27.041093,4,EyesOpen
4156.284529719893,9900.347578566978,-5726.718095149768,-6386.340425770334,34130.7561553426,-3517.918708076323,6379.478440222555,4899.457681114398,0.0,0.0,0.0,2019-03-17T21:16:27.047701,4,EyesOpen
3657.885331855456,9389.43140380757,-6234.8179501078075,-6894.216763283821,33822.45854407055,-3189.303361094399,5923.636963801023,4494.622885539876,-0.002,1.008,0.232,2019-03-17T21:16:27.054455,4,EyesOpen
3440.067582138489,9171.323081412684,-6517.43340700071,-7166.79628691629,33523.571017214184,-3634.6618693663922,5659.506399572659,4196.383559272714,0.0,0.0,0.0,2019-03-17T21:16:27.055296,4,EyesOpen
3935.9857363683864,9679.400584626268,-6032.109979642628,-6677.5836560229845,33806.52175027392,-4011.579336116235,6108.821166613241,4590.5565727420535,0.0,0.0,0.0,2019-03-17T21:16:27.061977,4,EyesOpen
4205.346608799292,9942.033581976126,-5701.281809959628,-6360.032422546437,34134.53360015555,-3632.0020117762106,6419.55511803092,4930.548957651729,0.0,0.0,0.0,2019-03-17T21:16:27.062802,4,EyesOpen
3753.4390394018938,9480.604169440767,-6132.35755352468,-6796.316122569576,33901.06962931986,-3205.4636723355857,6025.6726772394995,4602.782976959107,0.0,0.0,0.0,2019-03-17T21:16:27.069850,4,EyesOpen
3420.509805740095,9136.990801929333,-6534.264270575556,-7184.834144691724,33532.042328362746,-3538.79523739758,5652.040916924586,4216.433074049124,0.0,0.0,0.0,2019-03-17T21:16:27.070660,4,EyesOpen
3828.0938658826194,9556.644804077721,-6145.8356554312295,-6786.883686409436,33723.9097027671,-4008.874775037143,6008.059502608718,4515.030028227571,0.0,0.0,0.0,2019-03-17T21:16:27.077672,4,EyesOpen
4209.638143734711,9955.042297249114,-5695.738577334711,-6349.482399163533,34120.94373952672,-3733.7024490478575,6421.74558898754,4947.580986926673,0.0,0.0,0.0,2019-03-17T21:16:27.078032,4,EyesOpen
3843.42716257896,9571.709879840599,-6037.161473889527,-6702.192926668278,33968.90717374172,-3242.388754175753,6111.481024203423,4701.5553357071085,0.0,0.0,0.0,2019-03-17T21:16:27.084255,4,EyesOpen
3411.0103143465894,9136.744932740323,-6523.513081492553,-7180.587313245215,33563.893564211554,-3445.2084833632093,5661.205132151263,4248.217254664571,0.0,0.0,0.0,2019-03-17T21:16:27.084587,4,EyesOpen
3707.9979429242544,9450.138741748184,-6259.181351564092,-6907.113719834533,33654.55223972228,-3975.816544987744,5903.632152513523,4428.417018463257,-0.002,1.012,0.228,2019-03-17T21:16:27.093189,4,EyesOpen
4186.504088223468,9927.840224247006,-5731.926051607854,-6390.78842291694,34084.1974716422,-3837.3474880871167,6391.727196184063,4908.711303318894,0.0,0.0,0.0,2019-03-17T21:16:27.094098,4,EyesOpen
3958.359832568149,9682.395718383279,-5922.474673089347,-6592.1776404592565,34056.05662537296,-3286.779318663993,6219.216432478003,4800.193583988379,0.0,0.0,0.0,2019-03-17T21:16:27.101114,4,EyesOpen
3466.9343789737677,9166.852732521622,-6463.409240652232,-7123.858585817646,33642.66111167206,-3343.642156558294,5720.683124146834,4314.624287441288,0.0,0.0,0.0,2019-03-17T21:16:27.101796,4,EyesOpen
3625.989392517733,9341.7551328844,-6350.644689875208,-6998.1970784899095,33610.89928280107,-3908.3142767327163,5826.943317287364,4354.1198198938155,0.0,0.0,0.0,2019-03-17T21:16:27.107614,4,EyesOpen
4142.493503390969,9881.169781824325,-5797.237848906261,-6451.316946901911,34021.43377321169,-3927.1791490529954,6334.305564678379,4840.382020519021,0.0,0.0,0.0,2019-03-17T21:16:27.108254,4,EyesOpen
4055.813438393288,9794.266199382091,-5830.541948144669,-6495.215773012134,34116.115762724374,-3350.481790361618,6308.623410299231,4876.68125351444,0.0,0.0,0.0,2019-03-17T21:16:27.114219,4,EyesOpen
3500.350236934452,9225.257840783339,-6412.626077249775,-7071.868428214601,33696.729981509445,-3276.7880888924706,5776.160153884906,4373.968168970128,0.0,0.0,0.0,2019-03-17T21:16:27.121965,4,EyesOpen
3541.030411843111,9264.97689068042,-6432.407371092721,-7076.919922461501,33572.65544803804,-3812.5146999972703,5759.28458682115,4302.867269857797,0.0,0.0,0.0,2019-03-17T21:16:27.122571,4,EyesOpen
4061.647243696123,9787.761841745596,-5892.232762841316,-6537.594680499396,33946.13074614176,-3987.6406178046013,6256.90147362965,4767.314167894622,0.0,0.0,0.0,2019-03-17T21:16:27.130235,4,EyesOpen
4113.235069898971,9842.903595316839,-5782.150421398928,-6440.096371185347,34140.21094324719,-3443.2415298511423,6362.267596991968,4928.313783206199,-0.01,1.016,0.224,2019-03-17T21:16:27.130876,4,EyesOpen
3580.6153512734595,9302.103138220686,-6326.929489008127,-6980.874476537047,33784.39352326316,-3205.4189688466754,5871.222123053328,4479.26723709908,0.0,0.0,0.0,2019-03-17T21:16:27.136948,4,EyesOpen
3470.9129894868124,9191.05967176672,-6494.366406722833,-7134.207443500453,33561.680741510485,-3698.5208032752043,5722.337153236527,4282.437775425646,0.0,0.0,0.0,2019-03-17T21:16:27.137746,4,EyesOpen
4018.5977838752015,9745.673506936253,-5939.439647130925,-6586.477945623154,33920.35918478479,-3972.3743763416264,6227.441874437556,4741.453199559832,0.0,0.0,0.0,2019-03-17T21:16:27.145058,4,EyesOpen
4200.0939488522945,9934.702209794785,-5693.481051144726,-6361.5523411693985,34203.28756610007,-3508.1956992382648,6461.241121440068,5008.310676611743,0.0,0.0,0.0,2019-03-17T21:16:27.145761,4,EyesOpen
3700.0407218981654,9419.695665800056,-6195.098900210727,-6867.55113214864,33905.137646810734,-3169.72323295155,6003.186822317461,4601.039540891593,0.0,0.0,0.0,2019-03-17T21:16:27.152865,4,EyesOpen
3442.5039222841174,9150.7594765138,-6515.667619188741,-7179.80500218928,33575.874099239605,-3610.4549301212946,5701.706493104279,4265.98689150654,0.0,0.0,0.0,2019-03-17T21:16:27.153537,4,EyesOpen
3904.045093541753,9627.43277876768,-6060.451991611957,-6722.421255400331,33832.002738952964,-4025.1468450006064,6119.7735213963415,4622.094884168492,0.0,0.0,0.0,2019-03-17T21:16:27.160191,4,EyesOpen
4212.074483880339,9942.279451165134,-5684.473298129237,-6362.334652225334,34198.124313130895,-3644.7201543712804,6469.064231999426,4993.849097949159,0.0,0.0,0.0,2019-03-17T21:16:27.160842,4,EyesOpen
3774.6508448899804,9496.764480681954,-6105.468404944945,-6788.135384098934,33978.540775601956,-3200.9262682111585,6085.687111101998,4669.368823691467,0.0,0.0,0.0,2019-03-17T21:16:27.168142,4,EyesOpen
3418.0064103611007,9133.23570886084,-6523.96011638166,-7193.931304685034,33604.46198039794,-3506.251097470653,5697.034978513119,4262.879999027253,-0.006,1.02,0.228,2019-03-17T21:16:27.168794,4,EyesOpen
3804.3563132710833,9521.843137960808,-6182.201943660015,-6841.444294624841,33755.44801419354,-4014.105083239685,6006.003142118829,4511.207879925714,0.0,0.0,0.0,2019-03-17T21:16:27.174715,4,EyesOpen
4214.041437392407,9931.260041148667,-5728.416827728371,-6393.984722374049,34146.111803783395,-3775.0084728012653,6425.098350655837,4942.328326979677,0.0,0.0,0.0,2019-03-17T21:16:27.182369,4,EyesOpen
3882.6991775869346,9590.194772505138,-6016.2849445682705,-6686.636112527384,34040.18688680969,-3243.9533762876245,6170.623740032165,4750.170379897401,0.0,0.0,0.0,2019-03-17T21:16:27.183141,4,EyesOpen
3430.67984946726,9137.683706007447,-6515.488805233098,-7177.927455655034,33634.167448779044,-3423.214366819187,5710.826004842044,4289.031540039961,0.0,0.0,0.0,2019-03-17T21:16:27.189513,4,EyesOpen
3686.7414339472575,9407.245744138449,-6299.81682298384,-6948.8891302215025,33676.389894055115,-3984.6007805586796,5903.989780424808,4422.583213160421,0.0,0.0,0.0,2019-03-17T21:16:27.190067,4,EyesOpen
4166.655739147155,9896.771299454129,-5769.476982292769,-6429.076961168881,34096.89326249281,-3876.19481995044,6389.559076971898,4905.49265211733,0.0,0.0,0.0,2019-03-17T21:16:27.196868,4,EyesOpen
3969.133373395607,9693.213962699649,-5920.641830044011,-6589.450727635709,34109.67846032124,-3304.4371967836855,6263.271720799413,4838.6162327070515,0.0,0.0,0.0,2019-03-17T21:16:27.197225,4,EyesOpen
3454.1715328897876,9167.880912766566,-6478.85429607085,-7138.722495880425,33689.64447851711,-3340.289394889998,5757.161171097895,4342.742781966064,0.0,0.0,0.0,2019-03-17T21:16:27.204867,4,EyesOpen
3605.805767274591,9321.392693685615,-6386.049853092415,-7032.015267850789,33641.454117471476,-3897.1607562495183,5842.813055850632,4370.190724157182,0.0,0.0,0.0,2019-03-17T21:16:27.205278,4,EyesOpen
4151.031869772896,9862.014336826127,-5819.455482894836,-6466.51613313152,34059.990532397096,-3930.800131654755,6367.1849807721355,4874.759003491283,-0.006,1.014,0.234,2019-03-17T21:16:27.212914,4,EyesOpen
4068.486877499447,9786.107812655904,-5839.102666271051,-6497.003912568559,34162.7638534026,-3370.643063860305,6355.450314933099,4921.608259869607,0.0,0.0,0.0,2019-03-17T21:16:27.213211,4,EyesOpen
3522.1655395228318,9247.184902093995,-6391.794251417429,-7049.58373899266,33772.59180219076,-3249.608367634817,5848.5798059201015,4442.252748281092,0.0,0.0,0.0,2019-03-17T21:16:27.219593,4,EyesOpen
3525.7194668912252,9262.585254023703,-6443.762057276018,-7090.1745069234985,33627.037242297796,-3789.425347974938,5798.936581484864,4337.199549341149,0.0,0.0,0.0,2019-03-17T21:16:27.219922,4,EyesOpen
4061.9154646295865,9803.27395239758,-5889.2599808287605,-6538.309936321966,34002.12186600231,-3985.4724985924363,6306.120014920237,4806.139148013491,0.0,0.0,0.0,2019-03-17T21:16:27.227692,4,EyesOpen
4131.652907330144,9866.596444439465,-5761.653871733412,-6417.230536607568,34207.04265916856,-3467.5825795629717,6427.959373946116,4979.052243119746,0.0,0.0,0.0,2019-03-17T21:16:27.228195,4,EyesOpen
3605.0011044741996,9349.175912043562,-6298.162793894147,-6947.3021563651755,33861.8423178008,-3214.11379743979,5940.311365164682,4538.4323046722775,0.0,0.0,0.0,2019-03-17T21:16:27.235048,4,EyesOpen
3494.382321164885,9224.721398916412,-6479.435441426688,-7115.677847347003,33632.71458538945,-3677.44310825385,5769.655796248412,4330.292860304458,0.0,0.0,0.0,2019-03-17T21:16:27.241975,4,EyesOpen
3993.2732574073384,9730.988410829117,-5981.751499384821,-6618.910326827804,33937.19004835964,-4006.8184145472546,6226.100769770238,4742.436676315865,0.0,0.0,0.0,2019-03-17T21:16:27.242773,4,EyesOpen
4170.232018260004,9913.713921751252,-5740.240900545228,-6393.358873529301,34214.61990053891,-3582.5152495521606,6456.0555167264365,5010.098816168167,0.0,0.0,0.0,2019-03-17T21:16:27.249438,4,EyesOpen
3696.956181163333,9431.407979894637,-6212.08622599676,-6875.21778049681,33942.53211528446,-3205.620134546773,6024.689200483465,4635.148302930392,-0.002,1.012,0.23800000000000002,2019-03-17T21:16:27.250400,4,EyesOpen
3425.471893009173,9157.643813806035,-6542.556767768475,-7197.038197164321,33617.02366078182,-3601.7601015281803,5716.637458400423,4301.034426812462,0.0,0.0,0.0,2019-03-17T21:16:27.257422,4,EyesOpen
3870.919808258988,9617.240383296059,-6098.785233352809,-6752.551406926085,33860.09888173328,-4027.4714264239583,6120.35466675218,4648.022907736648,0.0,0.0,0.0,2019-03-17T21:16:27.258175,4,EyesOpen
4209.459329779069,9952.382439658933,-5704.70162686129,-6372.951730841605,34229.88614200189,-3680.818221666601,6483.257589728545,5034.261051924354,0.0,0.0,0.0,2019-03-17T21:16:27.265819,4,EyesOpen
3809.296048795706,9537.84698699081,-6080.635616855099,-6757.491142450708,34046.423023512725,-3206.1789281581555,6135.7326669374315,4753.165513654413,0.0,0.0,0.0,2019-03-17T21:16:27.266272,4,EyesOpen
3423.057904608,9141.662316520491,-6527.9610786391595,-7191.562019772771,33654.26166704436,-3494.7175973317144,5720.906641591388,4324.839034657363,0.0,0.0,0.0,2019-03-17T21:16:27.272074,4,EyesOpen
3803.842223148611,9533.443693333113,-6183.587751816243,-6834.850530010525,33812.95905267704,-3986.545382326291,6042.034154180784,4581.817040660029,0.0,0.0,0.0,2019-03-17T21:16:27.272566,4,EyesOpen
4235.923795214152,9968.073364266558,-5705.975676295242,-6371.49886745201,34216.2739296286,-3766.98419654181,6479.726014104607,5030.081275711212,0.0,0.0,0.0,2019-03-17T21:16:27.279963,4,EyesOpen
3921.68061991699,9641.737895219076,-5990.893362867041,-6663.636167482873,34112.15950395579,-3247.619062378295,6221.920993557095,4841.164331574957,0.0,0.0,0.0,2019-03-17T21:16:27.280550,4,EyesOpen
3459.021861436589,9176.687500081956,-6494.14288927828,-7158.481437978917,33711.75035378341,-3383.3388547109193,5757.921130409376,4382.193610929681,0.0,0.0,0.0,2019-03-17T21:16:27.288371,4,EyesOpen
3691.144727604953,9418.95805823303,-6298.922753205628,-6949.783199999714,33748.474269923485,-3943.16064633854,5939.12672270855,4500.255525142614,0.004,1.012,0.242,2019-03-17T21:16:27.289057,4,EyesOpen
4186.615846945745,9927.616706802453,-5765.8112962021,-6420.2480221090345,34170.87753663988,-3871.9926919928425,6436.765961261507,4987.1212228681115,0.0,0.0,0.0,2019-03-17T21:16:27.295533,4,EyesOpen
4015.5579466292797,9742.365448756867,-5896.300780332182,-6562.271006378056,34190.792940949555,-3312.3050108319535,6321.3415528943015,4935.801617598727,0.0,0.0,0.0,2019-03-17T21:16:27.301556,4,EyesOpen
3504.3288474474966,9219.044055824765,-6445.483141599077,-7107.854736787646,33776.972744104,-3310.449816042163,5815.856852037532,4451.796943163507,0.0,0.0,0.0,2019-03-17T21:16:27.302210,4,EyesOpen
3607.6609620643812,9322.040894274818,-6386.832164148351,-7038.765494676291,33702.608490301194,-3876.2171716948956,5866.550608462168,4443.996184348605,0.0,0.0,0.0,2019-03-17T21:16:27.309728,4,EyesOpen
4116.543128078357,9843.99883079515,-5839.460294182336,-6496.8474503573725,34096.2450619036,-3964.9312454380092,6370.470687207066,4922.54703313673,0.0,0.0,0.0,2019-03-17T21:16:27.310513,4,EyesOpen
4086.502383530424,9807.789004777553,-5818.5837648610795,-6484.889267073783,34228.09800244546,-3400.7508636416037,6396.7116351975965,5009.540022556785,0.0,0.0,0.0,2019-03-17T21:16:27.317934,4,EyesOpen
3558.5541794960714,9272.867056473144,-6382.45122223511,-7043.504064500817,33835.64607329918,-3254.9951380485463,5878.553495234668,4528.329316178479,0.0,0.0,0.0,2019-03-17T21:16:27.318616,4,EyesOpen
3533.4308187283063,9249.107152117153,-6465.197380208658,-7114.873184546613,33659.80489966928,-3781.624589160036,5796.097909939041,4396.208154703159,0.0,0.0,0.0,2019-03-17T21:16:27.325047,4,EyesOpen
4051.298386013316,9770.21572234818,-5925.31334463517,-6576.01732921807,34019.60093016636,-4003.2868389233163,6294.832383970307,4851.669651468951,0.0,0.0,0.0,2019-03-17T21:16:27.325937,4,EyesOpen
4145.063954003329,9860.941453092271,-5769.3428718260375,-6432.139150159258,34249.60038061147,-3494.0023415091446,6440.096371185347,5047.225063708433,0.002,1.01,0.23800000000000002,2019-03-17T21:16:27.335828,4,EyesOpen
3640.652136880414,9358.250720292417,-6279.141459362681,-6942.116551651544,33933.47965878006,-3200.143957155223,5972.833153347154,4629.828587750028,0.0,0.0,0.0,2019-03-17T21:16:27.336556,4,EyesOpen
3491.3201321745078,9208.337570230671,-6487.7502903640625,-7143.952804082966,33683.698914492,-3661.863942368501,5774.796697473133,4390.396701144779,0.0,0.0,0.0,2019-03-17T21:16:27.342285,4,EyesOpen
3985.6736642925343,9710.693026863699,-5995.3860635025585,-6654.2707865561,33978.42901687968,-4014.2838971953274,6221.250441223436,4786.46961289282,0.0,0.0,0.0,2019-03-17T21:16:27.342983,4,EyesOpen
4210.755730957476,9945.140474455415,-5710.334266464027,-6379.612550689287,34284.4914537062,-3593.1323281684317,6489.538429920487,5089.134584562134,0.0,0.0,0.0,2019-03-17T21:16:27.348555,4,EyesOpen
3737.4128386274388,9459.146494763672,-6173.373004600168,-6848.775666806182,34021.65729065624,-3199.942791455125,6068.230398682404,4722.722437706285,0.0,0.0,0.0,2019-03-17T21:16:27.349424,4,EyesOpen
3448.9859281761564,9144.769208999778,-6532.118503107847,-7201.195621633008,33678.647420245106,-3581.2859036071186,5737.84926388851,4362.926407209206,0.0,0.0,0.0,2019-03-17T21:16:27.354880,4,EyesOpen
3884.040282254253,9594.75452837402,-6111.771596881342,-6776.803049660093,33904.33298401034,-4023.872795566654,6131.932870380029,4691.854678613506,0.0,0.0,0.0,2019-03-17T21:16:27.355580,4,EyesOpen
4219.316449083859,9944.536977355121,-5712.256516487184,-6388.061510093393,34281.09398854899,-3706.1650998789196,6509.163261552247,5085.8488781272035,0.0,0.0,0.0,2019-03-17T21:16:27.363053,4,EyesOpen
3829.4796740388483,9551.7050685531,-6080.143878477083,-6761.737973897216,34112.360669655885,-3223.099198710823,6178.22333314697,4817.672648152429,0.0,0.0,0.0,2019-03-17T21:16:27.369232,4,EyesOpen
3422.253241807609,9149.530130568759,-6547.317689337456,-7222.5415375878265,33705.6036240582,-3496.125757232399,5743.526606980158,4370.481296835101,0.0,0.0,0.0,2019-03-17T21:16:27.370015,4,EyesOpen
3774.472030934338,9499.670207461144,-6234.102694285238,-6899.335312764087,33828.60527379576,-4014.3062489397826,6024.823310950197,4589.416633774833,0.006,1.012,0.23600000000000002,2019-03-17T21:16:27.377220,4,EyesOpen
4230.31350735587,9943.419390132356,-5728.37212423946,-6398.991513132038,34253.847212057975,-3808.3796272730387,6495.2828282455,5059.429116181031,0.0,0.0,0.0,2019-03-17T21:16:27.377790,4,EyesOpen
3928.810826398233,9641.603784752344,-5984.478412208368,-6664.060850627524,34176.01843786459,-3275.961074347624,6262.355299276745,4891.925143232959,0.0,0.0,0.0,2019-03-17T21:16:27.385361,4,EyesOpen
3452.6516142668265,9152.726430025868,-6507.129252806813,-7179.022691133344,33760.29834274034,-3390.9831513146346,5778.842363219544,4417.688181124709,0.0,0.0,0.0,2019-03-17T21:16:27.386267,4,EyesOpen
3682.025215867188,9380.446002536537,-6328.829387286829,-6989.52460164125,33779.096159827255,-3942.266576560328,5943.9099960219855,4520.0591707300155,0.0,0.0,0.0,2019-03-17T21:16:27.392541,4,EyesOpen
4197.54584998439,9912.752796739675,-5757.921130409376,-6428.942850702149,34219.29141513007,-3870.4504216254263,6468.103106987847,5030.684772811505,0.0,0.0,0.0,2019-03-17T21:16:27.393252,4,EyesOpen
4032.612327648679,9747.282832537036,-5865.522428217224,-6550.53634053902,34261.29034296159,-3309.868670686325,6373.801097130907,4997.023045661813,0.0,0.0,0.0,2019-03-17T21:16:27.400604,4,EyesOpen
3509.3579899499405,9218.552317446747,-6425.679496011674,-7106.535983864783,33849.347692650284,-3281.0796238278895,5857.453448468858,4504.055321700015,0.0,0.0,0.0,2019-03-17T21:16:27.401240,4,EyesOpen
3610.030246976644,9326.019504787864,-6386.4074810037,-7050.343698304141,33770.08840681177,-3822.70709546889,5900.5923152676005,4486.956237191705,0.0,0.0,0.0,2019-03-17T21:16:27.408187,4,EyesOpen
4122.309878147827,9852.157217521337,-5841.561358161135,-6505.788148139495,34155.32072249898,-3931.6271461996016,6400.712597455096,4958.399231243042,0.0,0.0,0.0,2019-03-17T21:16:27.408958,4,EyesOpen
4097.521793546891,9822.362342162412,-5812.146462457951,-6485.984502552093,34287.15131129638,-3390.4690611921624,6426.595917534342,5041.57007236124,0.0,1.014,0.232,2019-03-17T21:16:27.416127,4,EyesOpen
3576.0779471490323,9293.587123583213,-6358.177227756647,-7030.383590505552,33915.17358007116,-3207.140053169734,5923.681667289933,4578.173706313813,0.0,0.0,0.0,2019-03-17T21:16:27.416767,4,EyesOpen
3513.604821396449,9231.471625741915,-6474.8980373022605,-7139.974193569922,33718.50058060892,-3735.088257204087,5812.302924669138,4414.849509578885,0.0,0.0,0.0,2019-03-17T21:16:27.422163,4,EyesOpen
4064.061232097296,9792.768632503585,-5919.278373632237,-6587.819050290472,34084.15276815328,-3963.0536989037632,6318.413474370655,4879.989311693825,0.0,0.0,0.0,2019-03-17T21:16:27.429500,4,EyesOpen
4161.850114089264,9892.747985452173,-5755.618900730479,-6434.508435071521,34309.12307609595,-3484.3016844155413,6472.059365756437,5077.466973956463,0.0,0.0,0.0,2019-03-17T21:16:27.430258,4,EyesOpen
3639.333383957551,9354.89795862412,-6265.283377800391,-6942.18360688491,33996.13159848828,-3167.778631183938,6010.138214843061,4663.959701533282,0.0,0.0,0.0,2019-03-17T21:16:27.437568,4,EyesOpen
3454.037422423056,9165.466924365393,-6519.199194812679,-7187.47165053745,33712.35385088371,-3615.1711482013643,5776.227209118272,4388.765023799542,0.0,0.0,0.0,2019-03-17T21:16:27.438179,4,EyesOpen
3954.224759843917,9667.710622276143,-6031.640593009066,-6696.403824854354,34002.83712182488,-3970.0497949182745,6228.268888982402,4785.575543114608,0.0,0.0,0.0,2019-03-17T21:16:27.444793,4,EyesOpen
4192.494355737491,9900.839316944996,-5734.697667920312,-6408.6251149922755,34315.001584887694,-3565.796144699591,6508.693874918685,5096.600067210205,0.0,0.0,0.0,2019-03-17T21:16:27.445431,4,EyesOpen
3758.1329057375083,9460.867579086731,-6168.9026557091065,-6841.936033002858,34078.96716343965,-3133.356944722765,6114.185585282516,4760.876865491494,0.0,0.0,0.0,2019-03-17T21:16:27.452748,4,EyesOpen
3457.0102044356117,9157.755572528313,-6536.924128165738,-7199.608647776681,33725.94371151253,-3478.803155279536,5770.751031726722,4394.643532591287,0.002,1.016,0.234,2019-03-17T21:16:27.453384,4,EyesOpen
3887.9294857894765,9598.844897609342,-6126.836672644219,-6782.39098577392,33935.558371014406,-3928.3414397646716,6146.081524620238,4709.691370688841,0.0,0.0,0.0,2019-03-17T21:16:27.460181,4,EyesOpen
4245.579748818845,9967.089887510525,-5705.930972806332,-6372.750565141508,34318.510808767176,-3632.203177476308,6541.9309189237265,5114.593221496728,0.0,0.0,0.0,2019-03-17T21:16:27.461058,4,EyesOpen
3895.663189371013,9605.95275234613,-6028.533700529779,-6709.680761060806,34185.78615019157,-3123.365714951243,6250.352412504246,4882.760928006283,0.0,0.0,0.0,2019-03-17T21:16:27.468489,4,EyesOpen
3479.3619488909185,9199.888610826565,-6493.829964855906,-7172.495981752394,33790.204976821544,-3354.750973552582,5819.746055572755,4441.8727686253515,0.0,0.0,0.0,2019-03-17T21:16:27.469254,4,EyesOpen
3778.65180714748,9507.828594187331,-6220.982220289972,-6884.359643979031,33887.99385881351,-3892.623352125091,6075.405308652557,4630.566195317054,0.0,0.0,0.0,2019-03-17T21:16:27.475358,4,EyesOpen
4242.9422429731185,9953.63413734843,-5713.731731621234,-6382.920608868672,34308.586634229025,-3728.203919911852,6543.093209635403,5097.360026521686,0.0,0.0,0.0,2019-03-17T21:16:27.476256,4,EyesOpen
3969.4015943290706,9668.001194954062,-5946.36868791207,-6629.616812421896,34244.21361019774,-3201.686227522639,6330.081084976326,4946.6198619150955,0.0,0.0,0.0,2019-03-17T21:16:27.482117,4,EyesOpen
3473.550495332539,9177.760383815812,-6481.111822260836,-7155.888635622101,33825.92306446112,-3293.5966007228617,5839.706163371345,4463.621015980365,0.0,0.0,0.0,2019-03-17T21:16:27.489728,4,EyesOpen
3665.3508145035285,9374.09810711123,-6338.261823446968,-7005.081415782144,33810.00862240895,-3861.979110476865,5963.445420675925,4523.948374265239,0.0,0.0,0.0,2019-03-17T21:16:27.490646,4,EyesOpen
4182.458422477058,9894.357311052956,-5788.677130779878,-6463.0963162298585,34225.57225532201,-3849.305671370706,6464.9738627641045,5008.713008011939,0.0,1.012,0.232,2019-03-17T21:16:27.497837,4,EyesOpen
4052.1254005581623,9761.78911468853,-5869.813963152643,-6555.699593508196,34284.22323277274,-3290.3108942879317,6402.254867822513,4998.207688117944,0.0,0.0,0.0,2019-03-17T21:16:27.498482,4,EyesOpen
3521.159711022343,9222.553279704247,-6429.5239960579875,-7112.682713589992,33876.37095169675,-3235.906748283714,5887.248323827783,4507.2069176682135,0.0,0.0,0.0,2019-03-17T21:16:27.504684,4,EyesOpen
3600.1060724384874,9301.857269031676,-6409.228612092568,-7080.49620157435,33779.40908424963,-3770.1581442544634,5898.200678610883,4464.9397689032285,0.0,0.0,0.0,2019-03-17T21:16:27.505518,4,EyesOpen
4128.836587528776,9841.942470305261,-5857.744021146777,-6532.878462419327,34164.931972614766,-3899.7312068618785,6407.663989980697,4941.568367668196,0.0,0.0,0.0,2019-03-17T21:16:27.512553,4,EyesOpen
4121.527567091891,9832.46533065621,-5809.084273467573,-6496.042787556981,34310.7994569301,-3377.840325574914,6461.464638884621,5045.213406707455,0.0,0.0,0.0,2019-03-17T21:16:27.513194,4,EyesOpen
3610.052598721099,9308.763958068366,-6340.049963003393,-7025.063875325189,33954.60205729032,-3170.8631719187706,5971.447345190924,4596.680950722808,0.0,0.0,0.0,2019-03-17T21:16:27.520893,4,EyesOpen
3527.4629029587395,9220.787491892277,-6484.263418229034,-7158.190865300998,33738.72890934097,-3684.4168525239056,5831.480721411792,4412.748445600087,0.0,0.0,0.0,2019-03-17T21:16:27.521765,4,EyesOpen
4055.187589548539,9750.255614549591,-5956.672842105966,-6630.130902544368,34077.73781749461,-3953.643614488079,6320.134558693714,4853.927177658937,0.0,0.0,0.0,2019-03-17T21:16:27.527731,4,EyesOpen
4207.335914055814,9909.042407160094,-5734.809426642589,-6420.471539553588,34347.50102132571,-3459.3347858589636,6530.710343207163,5104.669046958572,0.0,0.0,0.0,2019-03-17T21:16:27.528475,4,EyesOpen
3681.1311460889756,9388.313816584805,-6247.8490171252515,-6936.282746348709,34027.28993025899,-3143.5716919388406,6062.284834657292,4686.490259944232,0.0,1.008,0.23800000000000002,2019-03-17T21:16:27.535441,4,EyesOpen
3462.1064021714215,9169.311424411706,-6528.184596083713,-7203.386092589628,33725.63078709016,-3583.923409452845,5803.317523398105,4390.44140463369,0.0,0.0,0.0,2019-03-17T21:16:27.536082,4,EyesOpen
3950.1790940975065,9655.99830818156,-6053.277081641803,-6720.163729210345,34005.385220692784,-3963.612492515146,6245.435028724079,4769.258769662234,0.0,0.0,0.0,2019-03-17T21:16:27.542469,4,EyesOpen
4239.0083359489845,9949.856692535484,-5702.689969860312,-6381.065414078881,34356.77699527467,-3562.175162097831,6572.508105338587,5119.220032598977,0.0,0.0,0.0,2019-03-17T21:16:27.550121,4,EyesOpen
3798.142528312508,9483.44284098659,-6133.676306447543,-6814.085759411545,34118.19447495872,-3133.401648211676,6178.156277913604,4782.580409357597,0.0,0.0,0.0,2019-03-17T21:16:27.550770,4,EyesOpen
3475.919780244801,9151.47473233637,-6523.378971025822,-7189.192734860509,33757.146746772145,-3459.312434114508,5816.460349137825,4400.276172194025,0.0,0.0,0.0,2019-03-17T21:16:27.557428,4,EyesOpen
3864.974244233876,9560.489304124034,-6154.843408446719,-6809.771872731671,33936.96653091509,-3940.545492237269,6156.832713703241,4680.097661030014,0.0,0.0,0.0,2019-03-17T21:16:27.558075,4,EyesOpen
4245.982080219041,9946.816855289562,-5716.928031078342,-6383.12177456877,34323.27173033616,-3666.2895877706515,6564.617939545863,5098.38820676663,0.0,0.0,0.0,2019-03-17T21:16:27.564801,4,EyesOpen
3886.0966427441413,9581.388185189746,-6053.366488619625,-6724.52231937913,34177.40424602082,-3169.00797712898,6266.199799323059,4861.81734345166,0.0,0.0,0.0,2019-03-17T21:16:27.565507,4,EyesOpen
3463.492210327651,9150.737124769346,-6535.314802564955,-7197.932266942534,33774.469348725004,-3373.4370319172185,5825.624564364501,4416.168262501748,0.0,0.0,0.0,2019-03-17T21:16:27.573281,4,EyesOpen
3767.69945236438,9460.5323029199,-6273.6205784822205,-6926.693847977383,33854.19802119709,-3906.2132127539176,6066.777535292809,4593.976389643716,0.006,1.008,0.244,2019-03-17T21:16:27.573968,4,EyesOpen
4237.26489988147,9937.339715640512,-5756.267101319683,-6420.8962226982385,34267.86175583145,-3765.687795363402,6547.518855037553,5068.459220940974,0.0,0.0,0.0,2019-03-17T21:16:27.581569,4,EyesOpen
4003.108024967674,9701.908791292763,-5938.009135485785,-6615.468158181687,34244.83945904249,-3198.0875966653343,6384.418175747178,4973.330196539187,0.0,0.0,0.0,2019-03-17T21:16:27.582198,4,EyesOpen
3513.962449307734,9198.547506159248,-6471.522923889509,-7143.617527916137,33825.431326083104,-3256.000966549035,5895.809041954165,4497.193336152236,0.0,0.0,0.0,2019-03-17T21:16:27.588007,4,EyesOpen
3674.2244570522857,9353.065115578785,-6369.554265684398,-7033.959869618401,33762.734682885966,-3838.398020076516,5988.99346458834,4527.524653378088,0.0,0.0,0.0,2019-03-17T21:16:27.588850,4,EyesOpen
4208.49820476749,9897.19598259878,-5800.0988721965405,-6472.037014011981,34164.28377202556,-3834.2405956078287,6515.153529066269,5033.366982146142,0.0,0.0,0.0,2019-03-17T21:16:27.595559,4,EyesOpen
4120.186462424572,9797.41779535029,-5840.3096604716375,-6525.278869304522,34230.60139782446,-3259.8678183398033,6485.157488007247,5062.424249938042,0.0,0.0,0.0,2019-03-17T21:16:27.596259,4,EyesOpen
3583.610485030471,9236.321954288716,-6419.063379652904,-7100.948047750956,33793.22246232301,-3197.484099565041,5949.296766435715,4557.632453159386,0.0,0.0,0.0,2019-03-17T21:16:27.602520,4,EyesOpen
3617.2945639246186,9281.874809488632,-6444.65612705423,-7114.269687446319,33652.25001004338,-3749.527484122215,5921.334734122126,4476.048585897516,0.0,0.0,0.0,2019-03-17T21:16:27.603220,4,EyesOpen
4157.670337876122,9820.37303690589,-5887.181268594417,-6554.604358029886,34035.11304081834,-3904.112148775119,6428.831091979872,4951.716059650906,0.0,0.0,0.0,2019-03-17T21:16:27.609790,4,EyesOpen
4203.2008413315825,9852.559548921532,-5792.991017459753,-6467.633720354285,34212.36237434892,-3376.7003866076934,6517.455758745165,5091.034482840834,0.008,1.014,0.242,2019-03-17T21:16:27.617040,4,EyesOpen
3687.7696141922015,9321.526804152347,-6331.668058832653,-7003.472090181362,33851.35934965126,-3154.524046721941,6024.152758616538,4638.143436687403,0.0,0.0,0.0,2019-03-17T21:16:27.617880,4,EyesOpen
3586.5162118096605,9217.881765113088,-6500.1331567923025,-7156.9391676115,33619.8846840721,-3658.7794016336684,5870.216294552839,4433.2449952656025,0.0,0.0,0.0,2019-03-17T21:16:27.624950,4,EyesOpen
4099.488747058957,9754.725963440653,-5968.094583522628,-6623.8724140968825,33955.965513702096,-3940.7466579373668,6359.227759746046,4875.943645947415,0.0,0.0,0.0,2019-03-17T21:16:27.625673,4,EyesOpen
4272.960635776596,9924.822738745539,-5727.053371316597,-6393.381225273755,34238.804488039554,-3464.2745213835865,6592.334102670444,5149.372535869185,0.0,0.0,0.0,2019-03-17T21:16:27.633062,4,EyesOpen
3761.083336005609,9400.048482423841,-6240.584700177276,-6904.252696544254,33922.52730399696,-3135.7709331239384,6126.255527288381,4739.799170470139,0.0,0.0,0.0,2019-03-17T21:16:27.633704,4,EyesOpen
3517.024638298111,9158.314366139695,-6549.172884127246,-7198.021673920354,33593.95666050394,-3570.08767963501,5839.415590693426,4424.326649227935,0.0,0.0,0.0,2019-03-17T21:16:27.641181,4,EyesOpen
3987.5288590823247,9641.804950452442,-6092.057358271762,-6730.758456082161,33846.66548331565,-3974.5648472982466,6261.640043454176,4792.571639129119,0.0,0.0,0.0,2019-03-17T21:16:27.641816,4,EyesOpen
4293.725406375576,9953.164750714868,-5729.579118440047,-6375.365719242778,34196.35852531892,-3597.1332904259316,6602.459442908698,5162.02362323089,0.0,0.0,0.0,2019-03-17T21:16:27.647826,4,EyesOpen
3864.5272093447697,9512.477757034036,-6145.075696119749,-6791.242276578221,33974.070426710896,-3156.781572911927,6227.441874437556,4851.58024449113,0.0,0.0,0.0,2019-03-17T21:16:27.648775,4,EyesOpen
3518.4551499432505,9151.72060152538,-6549.86578820536,-7184.431813291528,33605.80308506526,-3465.7273847731813,5854.838294367587,4465.744431703619,0.008,1.016,0.244,2019-03-17T21:16:27.655977,4,EyesOpen
3901.0499597847415,9548.84404526282,-6182.000777959916,-6808.698988997816,33782.024238350896,-3949.5085417638475,6192.751967042919,4745.029478672681,0.0,0.0,0.0,2019-03-17T21:16:27.656649,4,EyesOpen
4300.296819245436,9951.600128602997,-5729.020324828663,-6366.536780182932,34180.60054547794,-3701.0912538875646,6615.579916903963,5182.095489751755,0.0,0.0,0.0,2019-03-17T21:16:27.663009,4,EyesOpen
3954.291815077283,9596.855592352818,-6049.074953684206,-6695.353292864954,34047.205334568665,-3194.265448363477,6329.9693262540495,4967.406984258531,0.0,0.0,0.0,2019-03-17T21:16:27.663710,4,EyesOpen
3533.8778536174127,9174.027642491776,-6527.871671661338,-7166.595121216193,33657.61442871266,-3356.226188686632,5892.12100411904,4533.537272636566,0.0,0.0,0.0,2019-03-17T21:16:27.669644,4,EyesOpen
3820.2707553232617,9459.72764011951,-6298.0957386607815,-6927.3420485665865,33720.04285097633,-3903.776872608289,6101.489794431901,4684.568009921076,0.0,0.0,0.0,2019-03-17T21:16:27.677364,4,EyesOpen
4279.196772479627,9935.68568655082,-5787.447784834836,-6429.233423380068,34127.47044890767,-3810.8383191631224,6570.228227404145,5150.043088202845,0.0,0.0,0.0,2019-03-17T21:16:27.678233,4,EyesOpen
4060.32849077326,9705.149794238781,-5961.500818908313,-6616.541041915541,34112.628890589345,-3263.5111526860182,6415.487100540055,5061.5525319042845,0.0,0.0,0.0,2019-03-17T21:16:27.685470,4,EyesOpen
3561.951644653278,9192.557238645226,-6492.824136355417,-7142.634051160104,33705.64832754712,-3294.1106908453335,5918.384303854025,4586.577962229009,0.0,0.0,0.0,2019-03-17T21:16:27.686376,4,EyesOpen
3704.823995211601,9340.905766595099,-6401.025521877471,-7037.089113842144,33657.36855952365,-3858.5369418307478,5995.3860635025585,4608.661485750853,0.0,0.0,0.0,2019-03-17T21:16:27.692476,4,EyesOpen
4224.345591586303,9861.500246703656,-5854.748887389766,-6495.551049178965,34065.13143362182,-3903.2180789969066,6500.3343224924,5089.916895618069,0.004,1.008,0.25,2019-03-17T21:16:27.693114,4,EyesOpen
4155.099887263762,9789.639388279842,-5871.222123053328,-6524.943593137693,34171.25751629561,-3335.3720111098305,6494.724034634118,5137.749628752426,0.0,0.0,0.0,2019-03-17T21:16:27.700032,4,EyesOpen
3628.6492501079147,9249.889463173087,-6427.668801268197,-7080.853829485635,33771.54127020136,-3225.714352812094,5986.713586653899,4654.951948517793,0.0,0.0,0.0,2019-03-17T21:16:27.700991,4,EyesOpen
3640.4733229247718,9264.999242424876,-6477.580246636898,-7118.494167148372,33624.64560564108,-3769.755812854268,5939.439647130925,4551.5751304119985,0.0,0.0,0.0,2019-03-17T21:16:27.708107,4,EyesOpen
4175.641140418189,9807.811356522006,-5926.6991527914,-6568.976529714648,34004.93818580368,-3954.0459458882747,6446.108990443825,5022.436979107497,0.0,0.0,0.0,2019-03-17T21:16:27.708821,4,EyesOpen
4235.700277769599,9867.266996773124,-5805.351532143537,-6457.6424905827635,34203.71224924472,-3438.9276431712683,6561.198122644201,5189.024530532901,0.0,0.0,0.0,2019-03-17T21:16:27.716182,4,EyesOpen
3725.007620454743,9346.13607479764,-6327.197709941592,-6977.566418357661,33860.41180615566,-3181.077919134846,6084.7259860904205,4757.501752078742,0.0,0.0,0.0,2019-03-17T21:16:27.716819,4,EyesOpen
3584.862182719968,9214.193727277961,-6529.77156994004,-7162.527103725327,33605.37840192061,-3675.9455413753444,5895.317303576148,4524.104836476426,0.0,0.0,0.0,2019-03-17T21:16:27.722573,4,EyesOpen
4086.4353282970583,9724.796977614997,-6020.5094242703235,-6644.994812607148,33934.61959774728,-3986.9253619820315,6374.78457388694,4948.586815427162,0.0,0.0,0.0,2019-03-17T21:16:27.723208,4,EyesOpen
4286.170516749682,9913.468052562244,-5765.386613057449,-6401.092577110837,34224.52172333261,-3535.6883449182924,6617.099835526924,5225.815501906336,0.0,0.0,0.0,2019-03-17T21:16:27.729808,4,EyesOpen
3791.816984631656,9419.807424522332,-6251.76057240493,-6890.796946382159,33931.9597401571,-3175.8699626767593,6171.741327254931,4838.459770495864,0.004,1.006,0.25,2019-03-17T21:16:27.737486,4,EyesOpen
3542.7738479106247,9170.987805245853,-6557.688898764718,-7187.829278448735,33620.689346872496,-3563.18099059832,5889.707015717866,4527.144673722348,0.0,0.0,0.0,2019-03-17T21:16:27.738341,4,EyesOpen
4002.906859267576,9633.534805003977,-6112.620963170643,-6742.604880643473,33868.726655093036,-3981.4491845904813,6295.525288048421,4874.5354860467305,0.0,0.0,0.0,2019-03-17T21:16:27.744708,4,EyesOpen
4320.323982277391,9946.146302955902,-5740.687935434335,-6386.049853092415,34220.74427851967,-3637.701706612314,6638.60221369293,5241.774647447425,0.0,0.0,0.0,2019-03-17T21:16:27.745472,4,EyesOpen
3916.942050092465,9533.667210777667,-6128.378943011635,-6775.976035115246,34026.19469478067,-3172.8077736863825,6290.093814145782,4956.700498664439,0.0,0.0,0.0,2019-03-17T21:16:27.752434,4,EyesOpen
3539.018754842133,9158.627290562068,-6566.7637070135725,-7199.698054754503,33640.56004769326,-3465.772088262092,5886.510716260757,4542.500322163144,0.0,0.0,0.0,2019-03-17T21:16:27.753146,4,EyesOpen
3895.8867068155655,9519.764425726466,-6241.434066466578,-6864.578350136084,33782.76184591792,-3973.6037222866685,6186.269961150881,4782.6698163354195,0.0,0.0,0.0,2019-03-17T21:16:27.760308,4,EyesOpen
4308.94694434964,9934.657506305875,-5775.735470740256,-6413.989533661549,34175.683161697765,-3752.947301023877,6608.896745311827,5217.254783779953,0.0,0.0,0.0,2019-03-17T21:16:27.761074,4,EyesOpen
4001.878679022632,9622.33658103187,-6045.901005971552,-6694.1910021532785,34077.35783783887,-3220.1264166982673,6357.9090068231835,5036.183301947511,0.0,0.0,0.0,2019-03-17T21:16:27.768169,4,EyesOpen
3539.286975775597,9158.426124861971,-6553.754991740584,-7193.752490729391,33669.5949637407,-3373.5934941284054,5889.2599808287605,4569.545932954065,0.0,0.0,0.0,2019-03-17T21:16:27.768982,4,EyesOpen
3791.5934671871028,9411.492575584958,-6348.253053218491,-6978.2369706913205,33710.90098749411,-3928.006163597842,6073.036023740295,4690.200649523813,0.004,1.012,0.248,2019-03-17T21:16:27.774829,4,EyesOpen
4292.406653452713,9910.137642638403,-5801.864660008509,-6442.175083419691,34140.94855081422,-3834.039429907731,6571.032890204536,5181.1790682290875,0.0,0.0,0.0,2019-03-17T21:16:27.775836,4,EyesOpen
4103.132081405172,9723.858204347875,-5941.831283787642,-6594.815146304983,34150.91742884128,-3277.033958081479,6447.56185383342,5120.315268077286,0.0,0.0,0.0,2019-03-17T21:16:27.782652,4,EyesOpen
3604.822290518557,9209.946895831454,-6495.260476501046,-7139.169530769531,33735.0632232503,-3288.2768855424983,5944.357030911092,4633.717791285252,0.0,0.0,0.0,2019-03-17T21:16:27.783055,4,EyesOpen
3735.0659054596313,9341.978650328952,-6420.672705253685,-7051.058954126711,33677.66394348907,-3841.7954852337225,6010.585249732167,4640.400962877388,0.0,0.0,0.0,2019-03-17T21:16:27.789995,4,EyesOpen
4244.88684474073,9870.865627630428,-5873.97138762133,-6509.140909807791,34076.754340738575,-3918.2160995264176,6513.678313932218,5115.800215697314,0.0,0.0,0.0,2019-03-17T21:16:27.798198,4,EyesOpen
4195.891820894697,9811.32058040149,-5870.238646297294,-6515.846433144383,34194.05629564003,-3367.6702818477493,6521.0320378580145,5179.234466461476,0.0,0.0,0.0,2019-03-17T21:16:27.798846,4,EyesOpen
3677.6442739539475,9273.716422762445,-6426.864138467806,-7063.754744977325,33805.11359037323,-3231.7716755594824,6014.5862119896665,4704.326952019567,0.0,0.0,0.0,2019-03-17T21:16:27.805865,4,EyesOpen
3673.911532629911,9268.284948859806,-6493.964075322638,-7114.470853146417,33647.600847196685,-3752.3214521791283,5952.336603681637,4589.103709352459,0.0,0.0,0.0,2019-03-17T21:16:27.806639,4,EyesOpen
4201.0327221194175,9814.114548458403,-5951.219016458871,-6573.469230350164,34017.52221793201,-3958.1810186125067,6449.9534904901375,5048.119133486644,0.0,0.0,0.0,2019-03-17T21:16:27.813945,4,EyesOpen
4272.826525309864,9898.380625054911,-5813.5993258475455,-6447.472446855599,34228.29916814556,-3457.0102044356117,6579.593608330919,5226.284888539897,0.0,1.012,0.23800000000000002,2019-03-17T21:16:27.814715,4,EyesOpen
3748.365193410539,9360.016508104385,-6345.190864228113,-6979.555723614183,33882.65179188869,-3193.4160820741754,6096.304189718269,4784.301493680656,0.0,0.0,0.0,2019-03-17T21:16:27.820532,4,EyesOpen
3609.8067295320907,9209.008122564332,-6552.7938667290055,-7174.775859686835,33629.764155121346,-3661.595721435037,5904.794443225199,4546.188359998269,0.0,0.0,0.0,2019-03-17T21:16:27.821265,4,EyesOpen
4121.505215347435,9719.231393245625,-6047.15270366105,-6668.218275096211,33940.56516177239,-3992.5132980958583,6364.8380476043285,4953.235978273867,0.0,0.0,0.0,2019-03-17T21:16:27.829275,4,EyesOpen
4315.451301986134,9920.95588695477,-5782.977435943775,-6418.973972675082,34229.88614200189,-3576.7037959937807,6607.443881922231,5230.643478708682,0.0,0.0,0.0,2019-03-17T21:16:27.830090,4,EyesOpen
3843.3377556011387,9447.992974280474,-6249.480694470489,-6885.991321324268,33958.96064745911,-3188.9233814386585,6183.230123904958,4859.425706794943,0.0,0.0,0.0,2019-03-17T21:16:27.835482,4,EyesOpen
3585.242162375708,9185.583494375169,-6578.9677594861705,-7197.798156475802,33636.78260288031,-3552.541560237594,5881.950960391875,4527.65876384482,0.0,0.0,0.0,2019-03-17T21:16:27.836122,4,EyesOpen
4010.864080293665,9606.198621535137,-6168.232103375448,-6782.815668918571,33853.57217235234,-4003.5997633456905,6265.4621917560335,4841.589014719608,0.0,0.0,0.0,2019-03-17T21:16:27.843142,4,EyesOpen
4329.175273081693,9939.01609647466,-5781.368110342993,-6409.250963837024,34216.0727639285,-3687.233172325274,6627.3369344874545,5218.886461125191,0.0,0.0,0.0,2019-03-17T21:16:27.843904,4,EyesOpen
3944.9487858949647,9554.834312776842,-6139.800684428297,-6772.1985903023,34050.9380758927,-3197.2829338649435,6304.264820130446,4956.07464981969,0.0,0.0,0.0,2019-03-17T21:16:27.850064,4,EyesOpen
3564.566798754549,9160.907168496511,-6584.466288622176,-7203.274333867352,33664.498766004894,-3450.9081781993127,5896.703111732378,4535.481874404178,0.0,1.012,0.23800000000000002,2019-03-17T21:16:27.850614,4,EyesOpen
3907.621372654602,9498.373806282736,-6285.779927465907,-6892.473327216307,33784.058247096335,-3971.390899585593,6175.9434552125285,4745.878844961982,0.0,0.0,0.0,2019-03-17T21:16:27.856651,4,EyesOpen
4344.486218033579,9930.164805670358,-5806.133843199474,-6422.7737692324845,34192.24580433915,-3772.616836144547,6622.2854402405555,5194.500707924451,0.0,0.0,0.0,2019-03-17T21:16:27.865138,4,EyesOpen
4055.1428860596284,9639.167444606715,-6059.155590433549,-6685.116193904423,34116.205169702196,-3232.4198761486864,6393.448280507122,5029.053095466268,0.0,0.0,0.0,2019-03-17T21:16:27.865634,4,EyesOpen
3607.079816708543,9183.795354818745,-6555.185503385724,-7174.664100964559,33719.57346434277,-3341.5634443239505,5936.086885462629,4568.584807942487,0.0,0.0,0.0,2019-03-17T21:16:27.872590,4,EyesOpen
3825.8363396926334,9409.011531950418,-6372.035309318938,-6980.494496881306,33741.545229142335,-3899.172413250496,6105.133128778116,4663.602073621997,0.0,0.0,0.0,2019-03-17T21:16:27.873205,4,EyesOpen
4331.119874849305,9921.022942188138,-5823.277631196694,-6437.436513595166,34163.47910922517,-3835.5146450417815,6608.762634845095,5151.987689970457,0.0,0.0,0.0,2019-03-17T21:16:27.879798,4,EyesOpen
4181.251428276471,9756.089419852427,-5938.769094797265,-6558.58296854293,34191.99993515014,-3271.781298134482,6506.816328384439,5111.374570295164,0.0,0.0,0.0,2019-03-17T21:16:27.880149,4,EyesOpen
3648.0952677840314,9229.7281896744,-6500.200212025668,-7113.487376390383,33774.11172081372,-3261.5665509184064,5988.591133188144,4608.974410173227,0.0,0.0,0.0,2019-03-17T21:16:27.887535,4,EyesOpen
3734.395353125972,9314.106024993185,-6470.181819222191,-7076.852867228135,33675.47347253245,-3841.7284300003566,6006.986618874863,4564.09210730697,0.0,0.0,0.0,2019-03-17T21:16:27.888249,4,EyesOpen
4279.487345157546,9855.174703022803,-5907.83428047112,-6519.936802379704,34081.15763439627,-3938.4667800029256,6523.826005914928,5045.503979385374,0.0,1.016,0.23800000000000002,2019-03-17T21:16:27.896128,4,EyesOpen
4263.058812982895,9831.571260878,-5872.071489342629,-6496.221601512623,34222.934749476284,-3383.8529448333916,6558.91824470976,5133.368686839186,0.0,0.0,0.0,2019-03-17T21:16:27.896944,4,EyesOpen
3721.0290099416984,9277.78444025331,-6433.010868193015,-7056.512779773806,33832.67329128663,-3229.06711448039,6042.749410003354,4650.68276532683,0.0,0.0,0.0,2019-03-17T21:16:27.903277,4,EyesOpen
3658.9135121004,9222.486224470882,-6553.442067318209,-7163.644690948092,33635.75442263537,-3772.3709669555387,5933.5164348502685,4484.095213901426,0.0,0.0,0.0,2019-03-17T21:16:27.903702,4,EyesOpen
4209.682847223621,9782.21860912068,-5999.118804826594,-6607.3097714555,34010.704935873146,-3990.5463445837913,6448.411220122722,4952.319556751198,0.0,0.0,0.0,2019-03-17T21:16:27.910153,4,EyesOpen
4329.443494015157,9898.313569821545,-5827.368000432015,-6446.1313421882805,34246.18056370981,-3493.890582786868,6615.579916903963,5161.531884852873,0.0,0.0,0.0,2019-03-17T21:16:27.910867,4,EyesOpen
3826.819816448667,9392.38183407567,-6325.655439574175,-6945.223444130832,33932.02679539046,-3185.5929715148177,6159.6266817601545,4752.874940976494,0.0,0.0,0.0,2019-03-17T21:16:27.917257,4,EyesOpen
3650.799828863124,9218.708779657934,-6558.58296854293,-7165.946920626989,33665.03520787182,-3631.465569909283,5942.166559954472,4495.852231484918,0.0,0.0,0.0,2019-03-17T21:16:27.924986,4,EyesOpen
4135.966794010019,9706.759119839564,-6084.636579112599,-6690.771185251616,33946.9130571977,-3997.7883097873105,6374.73987039803,4875.161334891479,0.0,0.0,0.0,2019-03-17T21:16:27.925640,4,EyesOpen
4363.462849076134,9940.357201141978,-5802.24463966425,-6420.180966875669,34243.34189216398,-3596.641552047915,6637.2164055367,5172.283073935875,0.0,0.0,0.0,2019-03-17T21:16:27.933076,4,EyesOpen
3896.266686471306,9472.803410625866,-6252.6099386942315,-6872.133239761978,33990.58836586337,-3186.1517651262006,6232.247499495447,4822.075941810124,-0.002,1.012,0.23600000000000002,2019-03-17T21:16:27.933843,4,EyesOpen
3591.56770605656,9150.133627669053,-6618.0609605385025,-7227.682438812547,33642.30348376078,-3546.4618857457504,5893.842088442098,4458.569521733466,0.0,0.0,0.0,2019-03-17T21:16:27.939719,4,EyesOpen
4038.0885050402294,9590.440641694146,-6192.103766453715,-6796.785509203138,33872.43704467262,-3981.4938880793916,6287.299846088868,4788.458918149343,0.0,0.0,0.0,2019-03-17T21:16:27.940365,4,EyesOpen
4387.334512154403,9947.286241923124,-5785.078499922574,-6397.538649742442,34246.82876429901,-3677.845439654045,6669.849952441448,5182.319007196308,0.0,0.0,0.0,2019-03-17T21:16:27.947784,4,EyesOpen
4003.443301134503,9567.284234438448,-6147.31087056528,-6764.95662509878,34079.615364028854,-3196.210050131089,6341.7710473264515,4913.561631865697,0.0,0.0,0.0,2019-03-17T21:16:27.948672,4,EyesOpen
3615.7522935572024,9182.968340273897,-6587.64023633483,-7196.859383208679,33706.07301069177,-3417.7605411720924,5932.242385416315,4493.281780872558,0.0,0.0,0.0,2019-03-17T21:16:27.955874,4,EyesOpen
3931.2918700327723,9502.084195862317,-6298.5651252943435,-6901.503431976251,33817.58586377929,-3945.395820784071,6195.814156033297,4685.2385622547345,0.0,0.0,0.0,2019-03-17T21:16:27.956515,4,EyesOpen
4378.729090539109,9942.167692442858,-5804.233944920772,-6422.483196554565,34224.29820588806,-3782.3845484715166,6649.263995798111,5132.854596716714,0.0,0.0,0.0,2019-03-17T21:16:27.963160,4,EyesOpen
4116.185500167072,9671.465715344633,-6031.439427308968,-6660.953958148237,34164.37317900338,-3243.9533762876245,6441.392772363755,4987.344740312665,0.0,0.0,0.0,2019-03-17T21:16:27.963877,4,EyesOpen
3631.890253053934,9185.516439141804,-6550.245767861101,-7180.207333589475,33752.944618814545,-3344.8044472699703,5957.522208395268,4507.698656046231,0.0,0.0,0.0,2019-03-17T21:16:27.970586,4,EyesOpen
3844.1871218904403,9394.415842821103,-6391.950713628616,-7011.094035040622,33759.7171973845,-3903.754520863834,6100.7521868648755,4584.5663052280315,0.004,1.008,0.24,2019-03-17T21:16:27.971475,4,EyesOpen
4356.734973995087,9916.843165974995,-5846.188169263383,-6468.639548854774,34181.986353634165,-3871.3891948925493,6610.103739512413,5073.778936121337,0.0,0.0,0.0,2019-03-17T21:16:27.977543,4,EyesOpen
4209.369922801247,9770.483943281644,-5941.116027965072,-6569.378861114844,34227.96389197873,-3310.785092208993,6529.235128073112,5055.875188812636,0.0,0.0,0.0,2019-03-17T21:16:27.986853,4,EyesOpen
3686.4508612693385,9235.45023625496,-6499.641418414285,-7117.22011771442,33820.15631439165,-3262.93000733018,6013.558031744723,4570.954092854749,0.0,0.0,0.0,2019-03-17T21:16:27.987672,4,EyesOpen
3754.891902791489,9307.020522000852,-6492.6229706553195,-7095.874201759601,33711.88446425014,-3819.2649268227733,6014.161528845016,4521.042647486049,0.0,0.0,0.0,2019-03-17T21:16:27.993143,4,EyesOpen
4299.894487845241,9857.4769327017,-5921.98293471133,-6533.169035097246,34121.2566639491,-3927.000335097353,6539.695744478196,5016.9384499714915,0.0,0.0,0.0,2019-03-17T21:16:27.993793,4,EyesOpen
4286.975179550073,9846.301060474047,-5872.719689931833,-6499.596714925375,34271.2368692442,-3392.0336833040337,6595.150422471813,5123.086884389745,0.0,0.0,0.0,2019-03-17T21:16:27.999985,4,EyesOpen
3747.2252544433186,9294.861173017165,-6423.958411688615,-7051.103657615621,33892.84418736031,-3210.6939805381276,6084.927151790518,4651.643890338408,0.0,0.0,0.0,2019-03-17T21:16:28.000641,4,EyesOpen
3681.600532722537,9229.504672229848,-6553.129142895836,-7163.935263626011,33695.701801264506,-3722.4818733312936,5965.0994497656175,4480.474231299667,0.0,0.0,0.0,2019-03-17T21:16:28.008106,4,EyesOpen
4223.786797974921,9764.448972278711,-6004.6173339626,-6615.937544815248,34055.25196257257,-3972.5308385528137,6464.280958685989,4932.828835586171,0.0,0.0,0.0,2019-03-17T21:16:28.008746,4,EyesOpen
4342.854540688341,9883.829639414507,-5826.831558565087,-6445.393734621255,34285.11730255095,-3505.1111585034323,6632.410780478809,5141.035335187356,0.002,1.008,0.242,2019-03-17T21:16:28.015296,4,EyesOpen
3838.353316587605,9388.827906707276,-6331.958631510572,-6947.905653465468,33971.52232784299,-3181.793174957416,6170.6013882877105,4726.321068563589,0.0,0.0,0.0,2019-03-17T21:16:28.015987,4,EyesOpen
3637.0088025341993,9193.920695056999,-6591.417681147776,-7198.245191364907,33686.202309871,-3617.6745435803587,5921.7817690112315,4439.145855801804,0.0,0.0,0.0,2019-03-17T21:16:28.022870,4,EyesOpen
4134.513930620424,9692.968093510639,-6111.123396292138,-6713.458205873752,33975.9703249896,-3985.584257314713,6361.440582447122,4821.584203432108,0.0,0.0,0.0,2019-03-17T21:16:28.023739,4,EyesOpen
4370.146020668271,9929.181328914325,-5812.168814202406,-6421.74558898754,34285.519633951146,-3607.6162585754705,6641.1279608163795,5131.647602516127,0.0,0.0,0.0,2019-03-17T21:16:28.030871,4,EyesOpen
3934.488169489881,9481.051204329873,-6228.358295960224,-6840.840797524548,34067.00898015606,-3166.2810643054327,6261.5282847318995,4810.900069582471,0.0,0.0,0.0,2019-03-17T21:16:28.031672,4,EyesOpen
3624.5588808725934,9166.182180187963,-6599.821937062971,-7205.822432735256,33725.58608360125,-3492.7282920751923,5922.161748666972,4442.588024447921,0.0,0.0,0.0,2019-03-17T21:16:28.037992,4,EyesOpen
4014.820339062255,9562.389202402735,-6235.980240819484,-6842.226605680777,33897.06866706236,-3990.5463445837913,6254.8898166286735,4707.567954965586,0.0,0.0,0.0,2019-03-17T21:16:28.044798,4,EyesOpen
4384.831116775407,9943.195872687802,-5808.2572589227275,-6427.154711145725,34280.98222982672,-3714.1670243939193,6650.448638254242,5116.135491864145,0.0,0.0,0.0,2019-03-17T21:16:28.045475,4,EyesOpen
4025.7503421008996,9580.449411922624,-6141.030030373339,-6763.235540775721,34140.25564673611,-3207.7659020144824,6354.891521321717,4881.4645268278755,0.0,0.0,0.0,2019-03-17T21:16:28.052905,4,EyesOpen
3622.413113404884,9164.885779009555,-6609.991980790136,-7222.228613165452,33746.52966815587,-3417.939355127735,5923.45814984538,4442.386858747824,0.002,1.008,0.23800000000000002,2019-03-17T21:16:28.053591,4,EyesOpen
3924.295774018261,9477.16200079465,-6339.0664862473595,-6945.290499364198,33834.48378258751,-3948.770934196822,6166.131039396649,4619.077398667026,0.0,0.0,0.0,2019-03-17T21:16:28.060055,4,EyesOpen
4371.464773591134,9933.808140016574,-5833.000640034752,-6445.729010788084,34243.67716833081,-3805.362141771572,6633.640126423851,5080.015072824368,0.0,0.0,0.0,2019-03-17T21:16:28.060549,4,EyesOpen
4139.476017889502,9700.433576158712,-6017.134310857572,-6636.814074136505,34219.35847036344,-3238.901882040725,6467.767830821018,4979.588684986673,0.0,0.0,0.0,2019-03-17T21:16:28.068200,4,EyesOpen
3636.137084500442,9183.661244352013,-6555.789000486016,-7172.384223030117,33794.16123559013,-3320.3739905803195,5960.986728785841,4482.910571445295,0.0,0.0,0.0,2019-03-17T21:16:28.069061,4,EyesOpen
3813.8111011756782,9358.675403437068,-6428.808740235418,-7033.937517873946,33770.15546204513,-3886.0966427441413,6070.130296961105,4528.262260945113,0.0,0.0,0.0,2019-03-17T21:16:28.074831,4,EyesOpen
4344.016831400017,9898.917066921838,-5863.6672334274335,-6472.439345412176,34204.11458064492,-3866.8964942570324,6595.418643405276,5033.1881681905,0.0,0.0,0.0,2019-03-17T21:16:28.075381,4,EyesOpen
4208.140576856205,9765.499504268111,-5939.886682020031,-6560.9522534551925,34261.670322617334,-3315.1436823777776,6530.285660062512,5024.292173897287,0.0,0.0,0.0,2019-03-17T21:16:28.082601,4,EyesOpen
3671.899875628934,9224.520233216313,-6503.262401016045,-7123.232736972897,33854.242724685995,-3249.4295536791747,6014.250935822837,4529.290441190057,0.0,0.0,0.0,2019-03-17T21:16:28.082898,4,EyesOpen
3743.894844519478,9290.83785901521,-6492.041825299481,-7099.226963427897,33756.67736013858,-3780.708167637368,6025.404456306035,4477.344987075923,0.0,0.0,0.0,2019-03-17T21:16:28.090616,4,EyesOpen
4288.696263873132,9829.134920732371,-5939.439647130925,-6545.618956758852,34148.2575712511,-3925.0557333297415,6534.398381042288,4951.626652673084,0.0,1.012,0.23800000000000002,2019-03-17T21:16:28.090887,4,EyesOpen
4309.0363513274615,9844.222348239702,-5869.791611408188,-6484.598694395864,34314.55454999859,-3406.6517241778047,6605.275762710066,5069.979139563935,0.0,0.0,0.0,2019-03-17T21:16:28.097351,4,EyesOpen
3773.55560941167,9311.647333103101,-6407.462824280599,-7020.213546778387,33959.027702692474,-3190.6668175061727,6115.8396143722075,4614.227070120224,0.0,0.0,0.0,2019-03-17T21:16:28.097993,4,EyesOpen
3683.1428030899533,9237.975983378408,-6547.0941718929025,-7149.183112285508,33754.19631650404,-3681.9358088893664,5987.920580854486,4432.5967946763985,0.0,0.0,0.0,2019-03-17T21:16:28.104944,4,EyesOpen
4215.203728104082,9779.5587515305,-6008.081854353172,-6606.527460399564,34103.64348931831,-3950.6037772421573,6486.364482207833,4880.592808794118,0.0,0.0,0.0,2019-03-17T21:16:28.112472,4,EyesOpen
4355.080944905394,9906.851936203473,-5808.637238578468,-6418.057551152415,34347.16574515888,-3499.5008706451504,6671.571036764507,5108.58060223825,0.0,0.0,0.0,2019-03-17T21:16:28.113358,4,EyesOpen
3855.4076976070046,9403.62476153669,-6302.230811385013,-6912.254621059254,34044.12079383383,-3154.7028606775834,6219.216432478003,4710.496033489231,0.0,0.0,0.0,2019-03-17T21:16:28.121381,4,EyesOpen
3612.734808055736,9155.118066682586,-6611.0201610350805,-7209.644581037114,33723.82029578928,-3593.735825268725,5930.521301093257,4385.8145935314415,0.0,0.0,0.0,2019-03-17T21:16:28.122059,4,EyesOpen
4089.09518588724,9628.438607268168,-6160.02901316035,-6752.752572626183,33980.79830179195,-4000.5375743553136,6342.3968961712,4738.502769291731,0.0,0.0,0.0,2019-03-17T21:16:28.127319,4,EyesOpen
4387.178049943215,9928.376666113934,-5807.407892633426,-6414.593030761842,34326.08805013753,-3625.43059890635,6668.933530918781,5087.748776405904,0.0,0.0,0.0,2019-03-17T21:16:28.127717,4,EyesOpen
3971.100326907674,9506.331027308826,-6197.199964189525,-6812.901116955414,34129.191533230725,-3162.4142125146645,6312.780834767918,4787.050758248658,0.002,1.02,0.246,2019-03-17T21:16:28.135039,4,EyesOpen
3634.5948141330264,9158.470828350883,-6598.771405073572,-7206.5153368133715,33762.667627652605,-3478.6466930683487,5938.813798286176,4388.96618949964,0.0,0.0,0.0,2019-03-17T21:16:28.135596,4,EyesOpen
4018.1507489860956,9554.163760443183,-6239.623575165699,-6843.746524303738,33934.59724600283,-3970.3850710851043,6268.792601679874,4646.748858302696,0.0,0.0,0.0,2019-03-17T21:16:28.143295,4,EyesOpen
4387.312160409947,9927.124968424436,-5816.773273560199,-6436.207167650124,34300.45059924729,-3740.3185654066287,6657.824713924493,5039.178435704522,0.0,0.0,0.0,2019-03-17T21:16:28.144057,4,EyesOpen
4068.911560644098,9596.117984785795,-6103.479099688423,-6728.0091915141575,34191.59760374994,-3203.4967188235187,6397.1810218311575,4843.935947887415,0.0,0.0,0.0,2019-03-17T21:16:28.150464,4,EyesOpen
3641.725020614269,9164.818723776189,-6577.537247841031,-7195.697092497003,33797.29047981388,-3375.7169098516597,5954.5941298716225,4398.957419271162,0.0,0.0,0.0,2019-03-17T21:16:28.151103,4,EyesOpen
3933.012954355831,9456.978375551507,-6331.601003599287,-6937.2662231047425,33873.331114450826,-3909.521270933303,6178.089222680238,4559.912331093828,0.0,0.0,0.0,2019-03-17T21:16:28.157960,4,EyesOpen
4403.651285606777,9930.455378348277,-5821.534195129179,-6431.423894336688,34287.039552574104,-3795.5050224667816,6654.024917367091,5028.673115810528,0.0,0.0,0.0,2019-03-17T21:16:28.158596,4,EyesOpen
4196.07063485034,9716.929163566729,-5985.70775815341,-6603.308809198,34282.07746530503,-3225.6249458342727,6515.019418599537,4951.9619288399135,0.0,0.0,0.0,2019-03-17T21:16:28.165103,4,EyesOpen
3717.83271048459,9232.477454242404,-6502.033055071003,-7114.962591524433,33892.12893153774,-3242.9251960426805,6041.855340225142,4492.007731438605,0.0,0.0,0.0,2019-03-17T21:16:28.172778,4,EyesOpen
3858.224017408373,9372.689947210545,-6412.626077249775,-7018.492462455329,33846.53137284891,-3816.493310510315,6118.521823706845,4505.530536834066,0.004,1.012,0.246,2019-03-17T21:16:28.173447,4,EyesOpen
4370.4365933461895,9901.085186134003,-5873.837277154598,-6486.498592674565,34247.23109569921,-3862.694366299435,6609.030855778558,4973.330196539187,0.0,0.0,0.0,2019-03-17T21:16:28.180113,4,EyesOpen
4262.298853671415,9790.689920269242,-5918.093731176106,-6540.299241578489,34330.826619962056,-3311.9920864095793,6578.766593786072,4998.319446840221,0.0,0.0,0.0,2019-03-17T21:16:28.180861,4,EyesOpen
3726.885166988989,9233.885614143088,-6470.762964578029,-7090.934466234979,33933.881990180256,-3206.3800938582535,6071.538456861789,4517.421664884289,0.0,0.0,0.0,2019-03-17T21:16:28.187568,4,EyesOpen
3738.373963639017,9243.854492170154,-6518.841566901394,-7127.3901614415845,33783.45474999604,-3761.1280394945193,6024.219813849904,4407.741654842098,0.0,0.0,0.0,2019-03-17T21:16:28.188225,4,EyesOpen
4265.629263595255,9772.897931682817,-5975.3141969816925,-6587.372015401365,34156.61712367739,-3948.480361518903,6524.764779182051,4863.471372541353,0.0,0.0,0.0,2019-03-17T21:16:28.195377,4,EyesOpen
4318.669953187698,9823.457577640722,-5866.4835532288025,-6491.773604366017,34351.21141090529,-3431.328050056464,6627.739265887651,5012.401045847064,0.0,0.0,0.0,2019-03-17T21:16:28.195894,4,EyesOpen
3805.429197004938,9297.811603285267,-6399.371492787778,-7022.783997390748,34007.46393292712,-3187.3140558378764,6138.97366988345,4564.941473596272,0.0,0.0,0.0,2019-03-17T21:16:28.203538,4,EyesOpen
3693.2904950726625,9188.668035110002,-6576.77728852955,-7189.125679627143,33777.57624120429,-3670.178791305875,5974.934217325952,4351.392907070268,0.0,0.0,0.0,2019-03-17T21:16:28.204181,4,EyesOpen
4203.759634942965,9702.959323282163,-6069.750317305365,-6677.851876956449,34099.93309973873,-3986.9253619820315,6441.638641552764,4765.5930835715635,0.0,0.0,0.0,2019-03-17T21:16:28.210080,4,EyesOpen
4397.929239026218,9897.374796554423,-5816.527404371191,-6434.2178623936015,34389.45524566832,-3532.156769294354,6679.617664768418,5038.060848481757,0.002,1.006,0.244,2019-03-17T21:16:28.210753,4,EyesOpen
3902.0110847963197,9405.43525283757,-6296.911096204651,-6921.552946752661,34097.27324214855,-3169.7679364404603,6236.561386175321,4645.810085035573,0.0,0.0,0.0,2019-03-17T21:16:28.219655,4,EyesOpen
3645.301299727118,9152.43585734795,-6613.300038969522,-7230.163482447087,33775.58693594777,-3575.988540171211,5938.031487230241,4315.9653921086065,0.0,0.0,0.0,2019-03-17T21:16:28.220519,4,EyesOpen
4105.0543314283295,9621.688380442665,-6171.160181899093,-6786.0566718645905,34027.5805029369,-3996.0225219753415,6341.8828060487285,4657.880027041439,0.0,0.0,0.0,2019-03-17T21:16:28.225814,4,EyesOpen
4409.932125798718,9929.829529503528,-5812.146462457951,-6444.65612705423,34368.75753030271,-3658.1088493000093,6669.380565807887,5006.880164966603,0.0,0.0,0.0,2019-03-17T21:16:28.233715,4,EyesOpen
4011.7805018163326,9528.749826997499,-6191.120289697682,-6830.894271241936,34178.45477801022,-3183.6036662582956,6320.805111027374,4720.59902198303,0.0,0.0,0.0,2019-03-17T21:16:28.234398,4,EyesOpen
3654.1302387869646,9156.839151005644,-6603.219402220178,-7234.052685982309,33810.20978810904,-3466.6885097847594,5938.232652930338,4318.602897954333,0.0,0.0,0.0,2019-03-17T21:16:28.239788,4,EyesOpen
4033.5511009158017,9531.633202032233,-6254.5992439507545,-6878.458783442829,33971.92465924319,-3957.7563354678555,6258.980185863994,4571.311720766034,0.0,0.0,0.0,2019-03-17T21:16:28.240742,4,EyesOpen
4449.919396629261,9945.520454111154,-5790.040587191652,-6424.0031151775265,34373.1608239604,-3728.3156786341287,6690.502964318152,5006.634295777595,0.0,0.0,0.0,2019-03-17T21:16:28.247747,4,EyesOpen
4133.86573003122,9615.608705950823,-6075.472363885923,-6713.838185529493,34270.007523299166,-3204.0778641793568,6436.877719983783,4814.968087073336,0.0,0.0,0.0,2019-03-17T21:16:28.248516,4,EyesOpen
3647.0000323057216,9147.04908693422,-6587.997864246115,-7216.61832530717,33855.31560841985,-3373.325273194942,5964.205379987405,4342.675726732698,0.004,1.004,0.23800000000000002,2019-03-17T21:16:28.255795,4,EyesOpen
3910.7953203672555,9426.53529960338,-6365.083916793337,-6979.443964891907,33913.07251609236,-3912.8293291126884,6164.6781760070535,4479.758975477097,0.0,0.0,0.0,2019-03-17T21:16:28.256510,4,EyesOpen
4398.398625659779,9916.664352019352,-5842.567186661624,-6462.537522618476,34327.60796876049,-3827.3115548266837,6644.994812607148,4952.744239895849,0.0,0.0,0.0,2019-03-17T21:16:28.262494,4,EyesOpen
4193.768405171443,9704.121613993837,-5999.297618782237,-6624.855890852916,34325.015166403675,-3275.64814992525,6506.235183028601,4878.044709926214,0.0,0.0,0.0,2019-03-17T21:16:28.263420,4,EyesOpen
3681.3546635335283,9181.157848973018,-6546.423619559243,-7167.51154273886,33907.52928346745,-3287.31576053092,5999.454080993424,4387.334512154403,0.0,0.0,0.0,2019-03-17T21:16:28.271651,4,EyesOpen
3811.553574985692,9307.244039445406,-6471.522923889509,-7084.810088254224,33846.71018680456,-3849.3503748596163,6064.788230036286,4386.351035398368,0.0,0.0,0.0,2019-03-17T21:16:28.272299,4,EyesOpen
4357.33847109538,9857.85691235744,-5903.743911235799,-6521.255555302568,34267.07944477552,-3896.95959054942,6589.49543112462,4883.789108251227,0.0,0.0,0.0,2019-03-17T21:16:28.278351,4,EyesOpen
4306.667066415199,9808.772481533586,-5900.324094334137,-6531.157378096268,34387.42123692289,-3335.4614180876515,6592.244695692622,4947.223359015388,0.0,0.0,0.0,2019-03-17T21:16:28.278750,4,EyesOpen
3752.679080090413,9242.491035758381,-6478.697833859663,-7109.240544943875,33976.88674651227,-3229.491797625041,6065.212913180937,4446.298414027502,0.0,0.0,0.0,2019-03-17T21:16:28.285418,4,EyesOpen
3753.2155219573406,9250.649422484568,-6540.9921456566035,-7162.661214192059,33818.94932019107,-3767.341824453095,6003.5444502287455,4328.705886448131,0.0,0.0,0.0,2019-03-17T21:16:28.291843,4,EyesOpen
4282.460127170101,9798.960065717705,-5989.5746099441785,-6610.908402312804,34194.43627529577,-3966.8534954611655,6508.403302240766,4795.365607186032,0.002,1.008,0.24,2019-03-17T21:16:28.292616,4,EyesOpen
4347.257834346036,9864.294214760568,-5858.883960113998,-6493.651150900263,34399.737048117764,-3464.095707427944,6630.443826966743,4963.786001656771,0.0,0.0,0.0,2019-03-17T21:16:28.299930,4,EyesOpen
3832.3854008180383,9327.89705132211,-6385.468707736577,-7015.586735676138,34054.9390381502,-3196.724140253561,6148.830789188241,4526.049438244037,0.0,0.0,0.0,2019-03-17T21:16:28.300794,4,EyesOpen
3691.457652027327,9185.047052508242,-6581.381747887343,-7193.014883162366,33808.667517741625,-3659.8075818786124,5967.781659100254,4301.034426812462,0.0,0.0,0.0,2019-03-17T21:16:28.308003,4,EyesOpen
4211.3592280577695,9716.660942633265,-6060.697860800965,-6668.0171093961135,34133.99715828862,-3974.6095507871573,6444.454961354132,4725.69521971884,0.0,0.0,0.0,2019-03-17T21:16:28.308641,4,EyesOpen
4416.838814835407,9909.891773449395,-5806.714988555311,-6419.89039419775,34411.78463837918,-3553.70385094927,6677.941283934269,4997.8053567177485,0.0,0.0,0.0,2019-03-17T21:16:28.315345,4,EyesOpen
3933.5270444783027,9412.498404085447,-6286.741052477486,-6896.988379596279,34125.7046610957,-3175.557038254385,6239.511816443422,4618.071570166537,0.0,0.0,0.0,2019-03-17T21:16:28.316305,4,EyesOpen
3655.7172126432915,9153.039354448241,-6600.358378929899,-7207.18588914703,33810.56741602033,-3539.7787141536137,5943.753533810799,4297.815775610898,0.0,0.0,0.0,2019-03-17T21:16:28.322610,4,EyesOpen
4095.2419156124492,9597.526144686479,-6171.093126665727,-6774.299654281099,34045.26073280105,-3970.9215129520317,6338.418285658156,4632.510797084666,0.0,0.0,0.0,2019-03-17T21:16:28.323356,4,EyesOpen
4418.246974736092,9930.254212648179,-5796.097909939041,-6409.295667325934,34395.89254807145,-3652.632671908459,6685.473821815708,5003.817975976226,0.0,0.0,0.0,2019-03-17T21:16:28.330622,4,EyesOpen
4027.1137985126734,9536.79645500141,-6169.103821409205,-6786.816631176071,34215.4245633393,-3172.740718453016,6348.074239262848,4734.725324478784,0.0,1.014,0.23600000000000002,2019-03-17T21:16:28.331323,4,EyesOpen
3666.0660703260983,9162.71765979739,-6589.651893335807,-7201.776766988846,33845.54789609288,-3425.8518726649136,5958.237464217837,4333.489159761567,0.0,0.0,0.0,2019-03-17T21:16:28.338669,4,EyesOpen
4025.3033072117937,9512.5448122674,-6270.401927280656,-6876.424774697397,33981.20063319214,-3938.198559069462,6248.228996780992,4559.845275860462,0.0,0.0,0.0,2019-03-17T21:16:28.339358,4,EyesOpen
4442.252748281092,9927.01320970216,-5801.350569886037,-6418.102254641325,34380.08986474155,-3742.821960785623,6680.489382802175,4996.777176472804,0.0,0.0,0.0,2019-03-17T21:16:28.345050,4,EyesOpen
4158.050317531863,9644.5765667649,-6047.443276338969,-6671.79455420906,34309.905387151884,-3200.7027507666053,6455.94375800416,4839.353840274077,0.0,0.0,0.0,2019-03-17T21:16:28.345763,4,EyesOpen
3674.0679948410984,9174.564084358703,-6566.607244802385,-7184.6776824805365,33891.81600711537,-3342.5916245688945,5973.280188236259,4363.127572909305,0.0,0.0,0.0,2019-03-17T21:16:28.352320,4,EyesOpen
3896.8254800826885,9401.7695667469,-6388.352082771312,-6992.162107486976,33913.29603353692,-3901.944029562954,6137.856082660685,4467.309053815491,0.0,0.0,0.0,2019-03-17T21:16:28.360185,4,EyesOpen
4397.839832048397,9903.968561168738,-5854.30185250066,-6462.202246451646,34330.29017809513,-3838.107447398597,6631.024972322581,4951.872521862093,0.0,0.0,0.0,2019-03-17T21:16:28.360824,4,EyesOpen
4222.021010162951,9727.948573583195,-5989.775775644276,-6601.610076619396,34350.45145159381,-3287.1369465752778,6517.053427344969,4902.095186960124,0.0,0.0,0.0,2019-03-17T21:16:28.368198,4,EyesOpen
3720.850195986056,9222.01683783732,-6526.239994316101,-7127.881899819601,33955.00438869052,-3262.393565463253,6022.185805104471,4433.602623176887,0.0,0.0,0.0,2019-03-17T21:16:28.368842,4,EyesOpen
3836.6322322645465,9334.110836280684,-6468.304272687945,-7055.372840806585,33885.53516692342,-3813.520528497759,6077.573427864722,4427.612355662865,-0.006,1.012,0.23800000000000002,2019-03-17T21:16:28.374778,4,EyesOpen
4375.733956782098,9868.026956084605,-5912.639905529011,-6505.631685928308,34284.8937851064,-3908.8954220885544,6587.081442723446,4910.410035897498,0.0,0.0,0.0,2019-03-17T21:16:28.375484,4,EyesOpen
4344.441514544668,9841.160159249326,-5881.727442947322,-6490.320740976423,34419.741859405265,-3358.3719561543417,6612.830652335961,4996.6877694949835,0.0,0.0,0.0,2019-03-17T21:16:28.382748,4,EyesOpen
3789.805327630678,9299.689149819511,-6438.46469384011,-7048.801427936724,34031.06737507193,-3209.866965993281,6098.762881608353,4519.813301541007,0.0,0.0,0.0,2019-03-17T21:16:28.383612,4,EyesOpen
3753.2825771907064,9255.969137664932,-6533.05727637497,-7137.671963891025,33852.45458512957,-3740.698545062369,6006.338418285659,4377.499744594067,0.0,0.0,0.0,2019-03-17T21:16:28.390935,4,EyesOpen
4277.945074790129,9780.855152708908,-6001.219868805393,-6606.080425510458,34209.791923736564,-3978.096422922185,6494.880496845305,4825.115779056046,0.0,0.0,0.0,2019-03-17T21:16:28.391573,4,EyesOpen
4386.172221442726,9898.15710761036,-5822.830596307587,-6435.469560083099,34450.76608070923,-3465.6826812842705,6662.004490137636,5040.921871772036,0.0,0.0,0.0,2019-03-17T21:16:28.397664,4,EyesOpen
3862.3143866436944,9365.626795962668,-6347.984832285027,-6955.907577980469,34115.288748179526,-3177.7922126999156,6183.923027983074,4615.456416065266,0.0,0.0,0.0,2019-03-17T21:16:28.398366,4,EyesOpen
3684.1039281015314,9177.313348926706,-6590.545963114019,-7181.414327790061,33836.495439588485,-3638.3275554570623,5961.232597974849,4354.522151294012,0.0,0.0,0.0,2019-03-17T21:16:28.405675,4,EyesOpen
4175.507029951457,9669.67757578821,-6105.937791578507,-6690.033577684591,34130.7561553426,-3990.6357515616123,6413.140167372248,4748.918682207905,0.0,0.0,0.0,2019-03-17T21:16:28.406343,4,EyesOpen
4423.4996346830885,9919.503023565178,-5808.346665900549,-6400.086748610348,34446.85452542955,-3566.5784557555266,6694.235705642189,5060.6137586371615,-0.004,1.008,0.242,2019-03-17T21:16:28.412767,4,EyesOpen
3964.4395070599926,9460.35348896426,-6254.554540461843,-6848.038059239157,34194.45862704022,-3156.5133519784636,6286.629293755209,4710.69719918933,0.0,0.0,0.0,2019-03-17T21:16:28.420369,4,EyesOpen
3677.174887320386,9162.33768014165,-6605.253410965612,-7191.182040117031,33856.03086424242,-3514.051856285555,5956.404621172503,4357.919616451218,0.0,0.0,0.0,2019-03-17T21:16:28.421246,4,EyesOpen
4120.7229042915,9614.826394894886,-6186.225257661969,-6772.667976935862,34082.20816638567,-3958.9186261795317,6338.865320547262,4681.3046552306005,0.0,0.0,0.0,2019-03-17T21:16:28.427176,4,EyesOpen
4456.848437410407,9968.11806775547,-5785.838459234054,-6390.095518838825,34449.804955697655,-3662.53449470216,6706.417406370331,5065.642901139606,0.0,0.0,0.0,2019-03-17T21:16:28.427990,4,EyesOpen
4062.2507407964163,9563.953824514607,-6147.8249606877525,-6762.162657041867,34277.69652339179,-3186.2635238484772,6373.175248286158,4795.075034508113,0.0,0.0,0.0,2019-03-17T21:16:28.435321,4,EyesOpen
3664.9708348477884,9161.510665596803,-6610.617829634885,-7216.663028796081,33882.80825409988,-3439.2629193380976,5947.776847812754,4357.383174584291,0.0,0.0,0.0,2019-03-17T21:16:28.435964,4,EyesOpen
4005.387902902115,9484.336910764803,-6316.245355158491,-6914.646257715972,33997.405647922234,-3967.16641988354,6217.785920832864,4558.2135985152245,0.0,0.0,0.0,2019-03-17T21:16:28.443201,4,EyesOpen
4435.8825011113295,9924.95684921227,-5822.003581762741,-6427.467635568099,34403.04510629715,-3786.6760834069355,6673.94032167677,5014.077426681212,0.0,0.0,0.0,2019-03-17T21:16:28.443996,4,EyesOpen
4155.144590752672,9648.085790644383,-6050.952500218452,-6664.0832023719795,34340.393166588925,-3241.8970157977365,6470.003005266548,4873.864933713071,0.0,0.0,0.0,2019-03-17T21:16:28.450236,4,EyesOpen
3684.528611246182,9173.468848880393,-6561.332233110933,-7171.177228829531,33936.944179170634,-3339.6635460452494,5997.241258292349,4406.847585063885,0.0,0.0,0.0,2019-03-17T21:16:28.450878,4,EyesOpen
3902.5028231743368,9392.538296286857,-6403.484213767554,-7005.5284506712505,33943.60499901832,-3902.6592853855236,6139.241890816915,4484.341083090435,-0.004,1.008,0.24,2019-03-17T21:16:28.458227,4,EyesOpen
4403.941858284696,9899.744081466686,-5859.755678147755,-6472.640511112275,34360.75560578771,-3870.808049536711,6638.512806715108,4967.5187429808075,0.0,0.0,0.0,2019-03-17T21:16:28.458899,4,EyesOpen
4243.948071473607,9749.585062215932,-5965.211208487894,-6583.616922332874,34395.78078934918,-3314.428426555208,6545.574253269941,4941.2777949902775,0.0,0.0,0.0,2019-03-17T21:16:28.466561,4,EyesOpen
3720.8948994749667,9222.352114004148,-6528.586927483908,-7135.347382467674,33981.53590935897,-3281.258437783532,6027.840796451664,4449.762934418075,0.0,0.0,0.0,2019-03-17T21:16:28.467208,4,EyesOpen
3808.558441228681,9302.55017310979,-6501.161337037246,-7093.527268591794,33889.8490536033,-3827.579775760147,6051.868921741119,4414.983620045617,0.0,0.0,0.0,2019-03-17T21:16:28.473017,4,EyesOpen
4334.629098728788,9826.922098031295,-5940.17725469795,-6537.684087477218,34287.77716014113,-3937.550358480258,6566.450782591198,4895.993160723825,0.0,0.0,0.0,2019-03-17T21:16:28.479212,4,EyesOpen
4336.9760318965955,9831.32539168899,-5873.122021332028,-6484.621046140319,34451.72720572081,-3386.7810233570367,6627.538100187552,5012.401045847064,0.0,0.0,0.0,2019-03-17T21:16:28.480071,4,EyesOpen
3801.3388277696167,9285.048757201286,-6428.384057090767,-7039.05606735421,34070.92053543574,-3208.3693991147757,6118.521823706845,4540.153388995336,0.0,0.0,0.0,2019-03-17T21:16:28.487390,4,EyesOpen
3725.3876001104836,9205.074215540197,-6572.083422193936,-7170.663138707058,33851.56051535136,-3741.7490770517684,5985.975979086874,4353.583378026889,0.0,0.0,0.0,2019-03-17T21:16:28.488203,4,EyesOpen
4271.932455531652,9750.277966294047,-6025.069180139206,-6624.252393752622,34211.758877248634,-3983.1032136801737,6491.6841973881965,4810.251868993267,0.0,0.0,0.0,2019-03-17T21:16:28.495486,4,EyesOpen
4399.829137304919,9887.495325505177,-5829.983154533285,-6432.317964114901,34464.31123784915,-3487.028597239089,6681.3387490914765,5038.932566515514,-0.002,1.012,0.234,2019-03-17T21:16:28.496123,4,EyesOpen
3883.7944130652445,9377.249703079427,-6342.441599660111,-6935.99217367079,34147.00587356161,-3173.9253609091475,6214.164938231103,4623.3912853469,0.0,0.0,0.0,2019-03-17T21:16:28.502852,4,EyesOpen
3678.5606954766154,9163.119991197585,-6615.512861670597,-7191.718481983958,33849.41474788365,-3622.14489247142,5959.332699696148,4332.438627772168,0.0,0.0,0.0,2019-03-17T21:16:28.503906,4,EyesOpen
4165.6946141355775,9652.086752901883,-6140.40418152859,-6707.356179637454,34132.052556521005,-3994.390844630104,6396.97985613106,4713.826443413072,0.0,0.0,0.0,2019-03-17T21:16:28.510144,4,EyesOpen
4425.153663772781,9909.780014727117,-5826.026895764697,-6400.578486988365,34454.99056041129,-3597.8485462485014,6691.866420729926,5036.049191480779,0.0,0.0,0.0,2019-03-17T21:16:28.510781,4,EyesOpen
3995.1284521971293,9468.891855346186,-6242.462246711522,-6825.105169428011,34233.88710425939,-3159.776706668938,6308.131671921215,4712.21711781229,0.0,0.0,0.0,2019-03-17T21:16:28.518071,4,EyesOpen
3669.083555827565,9146.311479367194,-6625.213518764201,-7204.414272834572,33876.03567552992,-3510.6096876394377,5949.095600735617,4327.677706203188,0.0,0.0,0.0,2019-03-17T21:16:28.518707,4,EyesOpen
4089.452813798525,9573.520371141478,-6234.259156496425,-6808.721340742271,34076.10614014937,-3976.4647455769477,6310.29979113338,4622.743084757696,0.0,0.0,0.0,2019-03-17T21:16:28.526095,4,EyesOpen
4437.581233689933,9934.277526650134,-5815.610982848523,-6411.575545260375,34446.74276670728,-3708.310867346629,6692.805193997049,5016.871394738126,0.0,0.0,0.0,2019-03-17T21:16:28.526761,4,EyesOpen
4081.003854394419,9570.435830406646,-6137.45375126049,-6745.801180100582,34307.78197142863,-3197.104119909301,6400.444376521633,4787.587200115586,0.0,0.0,0.0,2019-03-17T21:16:28.532413,4,EyesOpen
3661.305148757118,9144.232767132851,-6611.891879068838,-7212.974990960955,33904.17652179915,-3416.710009182693,5960.003252029807,4340.015869142517,0.002,1.016,0.23600000000000002,2019-03-17T21:16:28.539526,4,EyesOpen
3963.4783820484145,9452.172750493617,-6346.599024128798,-6939.076714405623,33994.611679865324,-3953.7553732103556,6200.329208413268,4514.113606704904,0.0,0.0,0.0,2019-03-17T21:16:28.540363,4,EyesOpen
4422.180881760226,9914.742101996197,-5849.116247787028,-6448.634737567275,34407.58251042158,-3806.4126737609718,6661.691565715261,4971.899684894048,0.0,0.0,0.0,2019-03-17T21:16:28.547823,4,EyesOpen
4163.213570501038,9652.779656979998,-6067.91747426003,-6674.499115288153,34356.01703596318,-3270.194324278155,6465.555008119943,4837.453941995375,0.0,0.0,0.0,2019-03-17T21:16:28.548478,4,EyesOpen
3707.461501057327,9180.844924550644,-6568.864770992372,-7172.920664897045,33963.162775416706,-3328.1523976507665,6001.868069394597,4381.545410340477,0.0,0.0,0.0,2019-03-17T21:16:28.555887,4,EyesOpen
3893.8079945812224,9373.673423966578,-6423.958411688615,-7023.678067168959,33954.89262996824,-3886.834250311166,6134.145693081105,4443.817370392963,0.0,0.0,0.0,2019-03-17T21:16:28.556706,4,EyesOpen
4389.636741833298,9875.537142221589,-5885.080204615618,-6495.19342126768,34357.80517551961,-3897.272514971795,6623.805358863517,4911.192346953434,0.0,0.0,0.0,2019-03-17T21:16:28.562588,4,EyesOpen
4278.347406190325,9756.938786141729,-5948.3132896796815,-6568.127163425346,34425.19568505236,-3333.270947131032,6569.311805881478,4916.445006900431,0.0,0.0,0.0,2019-03-17T21:16:28.563305,4,EyesOpen
3762.335033695106,9223.15677680454,-6511.085511575403,-7125.758484096347,34014.86236034183,-3270.2390277670656,6049.678450784499,4422.650268393787,0.0,0.0,0.0,2019-03-17T21:16:28.570370,4,EyesOpen
3820.8742524235554,9287.060414202264,-6505.1846510392015,-7107.564164109727,33911.57494921386,-3803.5740022151476,6053.992337464373,4368.715509023132,0.0,0.0,0.0,2019-03-17T21:16:28.570935,4,EyesOpen
4328.370610281302,9804.458594853711,-5967.021699788774,-6570.9881867156255,34284.200881028286,-3955.834085444699,6551.586872528419,4828.222671535334,0.0,1.018,0.23600000000000002,2019-03-17T21:16:28.578286,4,EyesOpen
4349.761229725031,9829.917231788306,-5890.265809329249,-6499.149680036268,34455.54935402267,-3416.620602204872,6629.460350210709,4957.840437631659,0.0,0.0,0.0,2019-03-17T21:16:28.578829,4,EyesOpen
3826.462188537382,9288.960312480964,-6429.747513502541,-7033.311669029197,34093.87577699134,-3200.456881577597,6132.514015735867,4503.787100766552,0.0,0.0,0.0,2019-03-17T21:16:28.585686,4,EyesOpen
3730.9308327353997,9190.836154322167,-6591.820012547972,-7180.9449411565,33862.87049804575,-3719.397332596461,5978.398737716525,4300.274467500981,0.0,0.0,0.0,2019-03-17T21:16:28.586331,4,EyesOpen
4277.1627637341935,9745.673506936253,-6040.29071811327,-6624.3418007304435,34224.23115065469,-3972.6873007640006,6488.622008397819,4762.955577725837,0.0,0.0,0.0,2019-03-17T21:16:28.592218,4,EyesOpen
4415.721227612642,9887.00358712716,-5834.006468535241,-6426.439455323155,34472.76019725325,-3501.64663811286,6678.70124324575,4999.6829032519945,0.0,0.0,0.0,2019-03-17T21:16:28.592868,4,EyesOpen
3886.6554363555238,9343.99030732993,-6355.539721910921,-6948.4197435879405,34136.99229204563,-3189.0574919053906,6192.662560065099,4569.881209120895,0.0,0.0,0.0,2019-03-17T21:16:28.600089,4,EyesOpen
3684.081576357076,9135.895566451021,-6628.320411243488,-7206.135357157631,33845.74906179298,-3605.3810841299396,5938.433818630436,4281.364891691791,0.0,0.0,0.0,2019-03-17T21:16:28.607812,4,EyesOpen
4168.130954281206,9638.474540528601,-6151.133018867138,-6722.9576972672585,34133.103088510405,-3984.3102078807606,6380.841896634329,4663.535018388631,0.0,0.0,0.0,2019-03-17T21:16:28.608578,4,EyesOpen
4432.865015609863,9899.207639599757,-5825.289288197671,-6410.9720481600825,34457.31514183464,-3619.5520901146047,6681.003472924647,4990.541039769774,0.0,0.0,0.0,2019-03-17T21:16:28.615192,4,EyesOpen
4003.420949390048,9452.709192360544,-6238.841264109763,-6831.54247183114,34237.88806651688,-3182.530782524441,6299.123918905726,4669.2123614802795,-0.002,1.014,0.23800000000000002,2019-03-17T21:16:28.615861,4,EyesOpen
3679.2983030436403,9120.204641843397,-6624.878242597371,-7211.477424082449,33881.288335476915,-3496.9080682883346,5937.539748852223,4284.18121149316,0.0,0.0,0.0,2019-03-17T21:16:28.622653,4,EyesOpen
4077.8299066817654,9532.88489972173,-6246.776133391397,-6831.810692764604,34066.204317355674,-3975.3024548652716,6283.0083111534495,4560.0911450494705,0.0,0.0,0.0,2019-03-17T21:16:28.623372,4,EyesOpen
4454.613262964876,9913.24453511769,-5817.3544189160375,-6408.938039414649,34448.262685330235,-3724.5382338211816,6684.915028204326,4967.406984258531,0.0,0.0,0.0,2019-03-17T21:16:28.630482,4,EyesOpen
4100.762796492911,9560.913987268685,-6134.659783203577,-6733.99945902818,34316.43209653284,-3218.4723876085745,6396.599876475319,4741.810827471117,0.0,0.0,0.0,2019-03-17T21:16:28.631393,4,EyesOpen
3665.1272970589757,9116.114272608074,-6622.732475129661,-7218.518223585871,33901.96369909808,-3421.9403173852347,5940.17725469795,4280.13554574675,0.0,0.0,0.0,2019-03-17T21:16:28.640695,4,EyesOpen
3960.5950070136796,9413.079549441285,-6376.885637865739,-6963.842447262103,33977.15496744573,-3962.941940181487,6166.779239985853,4436.195425533703,0.0,0.0,0.0,2019-03-17T21:16:28.641337,4,EyesOpen
4445.538454716022,9909.15416588237,-5852.916044344431,-6444.27614739849,34405.973184820796,-3823.4447030359156,6650.98508012117,4918.031980756758,0.0,0.0,0.0,2019-03-17T21:16:28.647015,4,EyesOpen
4219.428207806135,9686.933122507706,-6026.6114505066225,-6630.1532542888235,34388.44941716784,-3259.7337078730716,6491.259514243546,4826.14395930099,0.0,0.0,0.0,2019-03-17T21:16:28.647678,4,EyesOpen
3715.9998674392546,9172.172447701985,-6560.639329032819,-7158.861417634656,33974.94214474465,-3307.6558479852497,5999.677598437977,4346.609633756832,0.0,0.0,0.0,2019-03-17T21:16:28.653517,4,EyesOpen
3870.562180347703,9323.426702431048,-6459.117705716813,-7048.577910492171,33935.60307450331,-3878.38529090706,6090.358625693158,4373.588189314388,0.006,1.012,0.244,2019-03-17T21:16:28.654271,4,EyesOpen
4393.34713141288,9846.345763962956,-5904.190946124905,-6499.887287603294,34351.859611494496,-3897.227811482884,6597.54205912853,4861.973805662848,0.0,0.0,0.0,2019-03-17T21:16:28.660399,4,EyesOpen
4296.765243621498,9746.925204625752,-5951.733106581343,-6559.097058665402,34429.934254876884,-3346.4361246152075,6555.543131297009,4880.101070416102,0.0,0.0,0.0,2019-03-17T21:16:28.667391,4,EyesOpen
3777.6459786469914,9215.512480200825,-6494.14288927828,-7099.875164017101,34040.36570076534,-3246.099143755334,6057.38980262158,4405.752349585575,0.0,0.0,0.0,2019-03-17T21:16:28.668212,4,EyesOpen
3805.4739004938488,9237.931279889499,-6532.051447874481,-7123.277440461808,33901.024925830956,-3792.8898683655107,6024.95742141693,4313.28318277397,0.0,0.0,0.0,2019-03-17T21:16:28.674830,4,EyesOpen
4334.070305117405,9776.921245684773,-5980.902133095519,-6570.541151826519,34285.67609616233,-3955.1188296221294,6531.313840307455,4785.933171025893,0.0,0.0,0.0,2019-03-17T21:16:28.675550,4,EyesOpen
4376.717433538131,9826.60917360892,-5869.724556174821,-6470.651205855752,34480.78447351271,-3415.9500498712123,6639.049248582036,4944.474094447386,0.0,0.0,0.0,2019-03-17T21:16:28.683466,4,EyesOpen
3850.646776038024,9286.591027568702,-6410.010923148504,-7007.048369294211,34125.88347505134,-3180.4073668011865,6149.099010121705,4495.449900084723,0.0,0.0,0.0,2019-03-17T21:16:28.684113,4,EyesOpen
3738.530425850204,9160.996575474332,-6592.06588173698,-7172.920664897045,33890.00551581449,-3680.9299803888775,5976.297673737726,4279.867324813285,0.0,0.0,0.0,2019-03-17T21:16:28.690970,4,EyesOpen
4245.065658696372,9677.277168903014,-6085.8435733131855,-6665.9607489062255,34206.640327768364,-3994.4802516079253,6434.776656004984,4692.324065247067,0.0,0.0,0.0,2019-03-17T21:16:28.691680,4,EyesOpen
4426.897099840296,9865.56826419452,-5848.602157664556,-6440.074019440892,34476.515290321746,-3544.584339211505,6655.589539478963,4951.7831148842715,0.008,1.008,0.23800000000000002,2019-03-17T21:16:28.698904,4,EyesOpen
3945.2840620617944,9377.361461801704,-6317.899384248184,-6912.1428623369775,34198.45958929772,-3173.8359539313265,6229.1853105050695,4576.698491179764,0.0,0.0,0.0,2019-03-17T21:16:28.699557,4,EyesOpen
3702.789986466168,9127.983048913842,-6618.820919849983,-7202.916705956067,33888.66441114717,-3579.430708817328,5945.474618133858,4259.571940847867,0.0,0.0,0.0,2019-03-17T21:16:28.705667,4,EyesOpen
4163.884122834697,9596.341502230347,-6172.233065632948,-6751.277357492132,34141.88732408134,-3995.2178591749503,6353.6845271211305,4608.7508927286735,0.0,0.0,0.0,2019-03-17T21:16:28.706396,4,EyesOpen
4462.570483990966,9901.778090212118,-5814.851023537043,-6405.9876091465485,34491.15568293997,-3638.4840176682496,6686.099670660457,4961.88610337807,0.0,0.0,0.0,2019-03-17T21:16:28.714197,4,EyesOpen
4036.4344759505366,9470.411773969146,-6223.262098224413,-6820.053675181112,34274.120244278936,-3195.561849541885,6311.327971378323,4648.022907736648,0.0,0.0,0.0,2019-03-17T21:16:28.714862,4,EyesOpen
3681.5111257447156,9107.03946435922,-6636.881129369871,-7221.7145230429805,33902.969527598565,-3491.3648356634185,5927.928498736442,4247.837275008831,0.0,0.0,0.0,2019-03-17T21:16:28.720832,4,EyesOpen
4046.738630144433,9481.92292236363,-6303.191936396592,-6878.056452042634,34054.44729977218,-3993.094443451696,6238.438932709567,4490.756033749108,0.0,0.0,0.0,2019-03-17T21:16:28.727234,4,EyesOpen
4453.763896675575,9898.470032032732,-5839.907329071442,-6430.283955369468,34452.26364758774,-3754.958958024855,6661.7362692041725,4921.83177731416,0.0,0.0,0.0,2019-03-17T21:16:28.727925,4,EyesOpen
4151.814180828832,9583.489249168546,-6116.756035894876,-6712.474729117719,34356.73229178575,-3223.613288833295,6412.64842899423,4736.155836123924,0.0,0.0,0.0,2019-03-17T21:16:28.735154,4,EyesOpen
3696.0621113851207,9118.081226120143,-6616.429283193265,-7204.660142023581,33948.58943803185,-3396.682846150738,5950.995499014319,4274.391147421736,0.008,1.002,0.242,2019-03-17T21:16:28.735811,4,EyesOpen
3961.4667250474367,9387.039767150853,-6383.010015846493,-6967.709299052871,34011.5766539069,-3936.96921312442,6162.197132372515,4419.252803236581,0.0,0.0,0.0,2019-03-17T21:16:28.743266,4,EyesOpen
4447.281890783535,9881.594464968975,-5845.718782629822,-6443.002097964537,34437.5785514806,-3830.820778706167,6656.505961001631,4901.2458206708225,0.0,0.0,0.0,2019-03-17T21:16:28.743908,4,EyesOpen
4237.421362092658,9669.007023454551,-6016.419055035002,-6625.817015864493,34421.03826058367,-3282.9571703621355,6507.844508629383,4814.074017295125,0.0,0.0,0.0,2019-03-17T21:16:28.749924,4,EyesOpen
3745.50417012026,9177.67097683799,-6553.598529529397,-7156.134504811109,34011.50959867354,-3296.7034932021493,6012.909831155519,4336.528997007489,0.0,0.0,0.0,2019-03-17T21:16:28.750637,4,EyesOpen
3869.176372191474,9299.465632374959,-6476.619121625319,-7067.643948512548,33952.47864156707,-3862.0014622213203,6078.512201131845,4343.14511336626,0.0,0.0,0.0,2019-03-17T21:16:28.757773,4,EyesOpen
4397.01281750355,9819.210746194214,-5919.948925965897,-6517.791034911995,34362.700207555325,-3910.1471197780515,6587.886105523838,4828.893223868993,0.0,0.0,0.0,2019-03-17T21:16:28.758715,4,EyesOpen
4319.519319477001,9743.214815046169,-5942.479484376846,-6544.076686391436,34463.6853890044,-3359.1095637213666,6570.429393104243,4871.205076122889,0.0,0.0,0.0,2019-03-17T21:16:28.765872,4,EyesOpen
3810.1901185739184,9227.984753606886,-6484.017549040026,-7075.422355582996,34083.817491986454,-3222.3392393993427,6070.912608017041,4405.77470133003,0.0,0.0,0.0,2019-03-17T21:16:28.766729,4,EyesOpen
3805.160976071474,9208.672846397501,-6557.912416209271,-7140.756504625858,33912.58077771435,-3778.5400484252036,6003.209174061915,4274.0558712549055,0.0,0.0,0.0,2019-03-17T21:16:28.772881,4,EyesOpen
4341.401677298746,9753.496617495612,-6000.973999616385,-6586.701463067707,34294.393276499904,-3968.239303617395,6516.114654077846,4741.2967373486445,0.002,1.006,0.24,2019-03-17T21:16:28.773596,4,EyesOpen
4388.29563716598,9814.718045558697,-5879.156992334962,-6477.312025703433,34495.13429345302,-3464.8780184838797,6629.840329866449,4903.905678261003,0.0,0.0,0.0,2019-03-17T21:16:28.779653,4,EyesOpen
3866.1588866900074,9280.868980988143,-6412.201394105125,-7009.082378039644,34145.620065405375,-3215.96899222958,6137.654916960588,4455.775553676553,0.0,0.0,0.0,2019-03-17T21:16:28.787355,4,EyesOpen
3731.981364724799,9142.645793276524,-6615.959896559703,-7201.173269888553,33890.65371640369,-3700.5101085317265,5949.408525157992,4217.1706816161495,0.0,0.0,0.0,2019-03-17T21:16:28.788076,4,EyesOpen
4239.2989086269035,9662.189741395681,-6104.529631677822,-6691.151164907356,34209.09901965845,-4019.1118739976737,6419.219841864091,4630.722657528241,0.0,0.0,0.0,2019-03-17T21:16:28.795403,4,EyesOpen
4455.686146698731,9874.799534654563,-5827.792683576666,-6424.427798322177,34514.02151751775,-3565.863199932957,6676.577827522497,4925.519815149286,0.0,0.0,0.0,2019-03-17T21:16:28.796068,4,EyesOpen
3984.511373580858,9397.589790533757,-6291.725491491019,-6888.584123681084,34246.06880498753,-3180.1167941232675,6255.090982328771,4560.225255516202,0.0,0.0,0.0,2019-03-17T21:16:28.802721,4,EyesOpen
3710.59074528107,9117.365970297573,-6624.677076897273,-7209.935153715033,33914.7041934376,-3572.948702925289,5946.7263158233545,4219.897594439697,0.0,0.0,0.0,2019-03-17T21:16:28.803566,4,EyesOpen
4150.227206972505,9560.802228546409,-6197.825813034274,-6776.087793837523,34147.67642589527,-4002.906859267576,6337.770085068952,4551.32926122299,0.0,0.0,0.0,2019-03-17T21:16:28.810085,4,EyesOpen
4452.489847241623,9864.271863016113,-5835.34757320256,-6423.489025055054,34490.19455792839,-3681.1982013223414,6675.214371110723,4909.180689952456,0.0,0.0,0.0,2019-03-17T21:16:28.810817,4,EyesOpen
4044.414048721081,9450.474017915014,-6220.602240634232,-6814.421035578374,34298.84127364651,-3213.9349834841473,6327.085951219315,4621.379628345922,0.0,1.014,0.232,2019-03-17T21:16:28.818148,4,EyesOpen
3674.2244570522857,9078.026900056231,-6647.051173097036,-7238.47833138446,33920.180370829155,-3487.5203356171055,5926.162710924472,4209.235812334516,0.0,0.0,0.0,2019-03-17T21:16:28.818895,4,EyesOpen
4049.8231708792655,9461.292262231382,-6303.996599196983,-6891.2439812712655,34073.11100639236,-3982.320902624238,6236.226110008492,4457.295472299513,0.0,0.0,0.0,2019-03-17T21:16:28.826166,4,EyesOpen
4478.9096091877955,9899.945247166783,-5821.5788986180905,-6418.750455230529,34489.367543383545,-3761.6644813614466,6684.13271714839,4908.040750985236,0.0,0.0,0.0,2019-03-17T21:16:28.826869,4,EyesOpen
4158.2961867208705,9577.498981654524,-6097.488832174401,-6703.511679591141,34390.75164684673,-3242.4781611535745,6431.110969914314,4719.682600460363,0.0,0.0,0.0,2019-03-17T21:16:28.832800,4,EyesOpen
3709.763730736224,9114.236726073828,-6592.714082326184,-7192.389034317617,33990.96834551911,-3373.19116272821,5976.007101059807,4263.774068805465,0.0,0.0,0.0,2019-03-17T21:16:28.833573,4,EyesOpen
3949.396783041571,9354.585034201746,-6404.579449245864,-6994.95607554389,34018.23747375458,-3932.7000299334563,6147.757905454387,4366.234465388592,0.0,0.0,0.0,2019-03-17T21:16:28.839858,4,EyesOpen
4430.5404341865105,9843.574147650499,-5882.465050514347,-6479.703662360152,34423.69811817385,-3869.5116483583033,6629.437998466254,4833.117703571046,0.0,0.0,0.0,2019-03-17T21:16:28.840565,4,EyesOpen
4248.641937809221,9649.784523222987,-6025.091531883661,-6629.125074043879,34431.61063571103,-3316.4624353006407,6504.29058126099,4769.459935362332,0.0,0.0,0.0,2019-03-17T21:16:28.847978,4,EyesOpen
3741.078524718109,9133.436874560937,-6568.708308781184,-7163.979967114922,34024.741831391075,-3308.326400318909,6000.526964727279,4288.159822006205,0.0,0.0,0.0,2019-03-17T21:16:28.855810,4,EyesOpen
3851.4737905828706,9252.236396340895,-6508.693874918685,-7091.962646479923,33952.590400289344,-3867.4552878684153,6051.533645574289,4278.883848057252,0.0,1.016,0.232,2019-03-17T21:16:28.856553,4,EyesOpen
4378.907904494751,9796.568429060988,-5944.245272188816,-6533.05727637497,34363.6613325669,-3937.1703788245177,6576.710233296184,4768.632920817486,0.0,0.0,0.0,2019-03-17T21:16:28.862372,4,EyesOpen
4329.175273081693,9750.322669782958,-5922.653487044989,-6522.261383803057,34498.91173826596,-3375.806316829481,6603.129995242357,4848.227482822834,0.0,0.0,0.0,2019-03-17T21:16:28.863149,4,EyesOpen
3810.1007115960974,9210.05865455373,-6468.505438388042,-7062.503047287828,34124.430611661744,-3215.4101986181977,6101.266276987348,4382.908866752251,0.0,0.0,0.0,2019-03-17T21:16:28.871695,4,EyesOpen
3789.917086352955,9179.839096050155,-6559.521741810053,-7140.689449392492,33948.23181012056,-3748.7004695773685,6012.194575332949,4242.562263317378,0.0,0.0,0.0,2019-03-17T21:16:28.872630,4,EyesOpen
4332.528034749989,9733.849434119396,-6004.416168262502,-6582.566390343474,34324.5010762812,-3956.191713355984,6523.356619281366,4708.797300910628,0.0,0.0,0.0,2019-03-17T21:16:28.879849,4,EyesOpen
4428.707591141176,9826.60917360892,-5848.244529753271,-6432.005039692526,34554.29936102621,-3445.186131618754,6677.047214156058,4907.012570740291,0.0,0.0,0.0,2019-03-17T21:16:28.880491,4,EyesOpen
3878.5417531182475,9272.6882425175,-6401.450205022122,-6980.606255603583,34194.972717162695,-3189.8398029613263,6172.188362144037,4447.795980906008,0.0,0.0,0.0,2019-03-17T21:16:28.886249,4,EyesOpen
3705.136919633975,9102.36794976806,-6634.556547946519,-7202.827298978245,33922.10262085231,-3667.8095063936125,5951.911920536986,4184.537134711401,0.0,0.0,0.0,2019-03-17T21:16:28.886908,4,EyesOpen
4214.8237484483425,9605.975104090585,-6131.7987599132975,-6701.9470574792695,34228.99207222367,-4011.847557049699,6408.781577203462,4585.996816873171,0.0,0.0,0.0,2019-03-17T21:16:28.893082,4,EyesOpen
4447.617166950366,9849.206787253235,-5838.186244748384,-6425.3665715893,34541.111831797585,-3585.3539210979848,6678.835353712482,4888.974712964859,0.002,1.016,0.234,2019-03-17T21:16:28.893921,4,EyesOpen
3987.0147689598525,9379.775450202877,-6289.177392623114,-6883.107946289533,34288.939450852806,-3184.9894744145245,6266.535075489888,4532.75496158063,0.0,0.0,0.0,2019-03-17T21:16:28.901063,4,EyesOpen
3700.979495165288,9084.039519314709,-6640.144484060345,-7223.7708835328685,33950.087004910354,-3552.5192084931386,5940.736048309333,4181.989035843496,0.0,0.0,0.0,2019-03-17T21:16:28.901752,4,EyesOpen
4113.816215254809,9512.298943078393,-6242.462246711522,-6824.613431049995,34148.972827073674,-4017.2119757189726,6298.945104950083,4478.306112087502,0.0,0.0,0.0,2019-03-17T21:16:28.908220,4,EyesOpen
4462.615187479876,9862.506075204145,-5838.767390104222,-6435.715429272107,34520.548226898696,-3703.594649266559,6669.55937976353,4863.7395934748165,0.0,0.0,0.0,2019-03-17T21:16:28.914593,4,EyesOpen
4087.1729358640837,9475.083288560307,-6190.405033875112,-6794.460927779785,34363.884850011455,-3206.6930182806277,6354.779762599441,4608.773244473129,0.0,0.0,0.0,2019-03-17T21:16:28.915242,4,EyesOpen
3702.3205998326066,9082.921932091944,-6631.069675811491,-7228.978839990955,33983.61462159331,-3449.25414910962,5950.6602228474885,4190.6391609477,0.0,0.0,0.0,2019-03-17T21:16:28.922693,4,EyesOpen
4036.32271722826,9425.86474726972,-6333.232680944524,-6922.692885719882,34099.553120082994,-3976.040062432297,6224.580851147277,4398.912715782251,0.0,0.0,0.0,2019-03-17T21:16:28.923653,4,EyesOpen
4480.161306877292,9868.384583995889,-5851.217311765828,-6449.998193979049,34501.459837133865,-3795.460318977871,6672.2415890981665,4847.065192111158,0.0,0.0,0.0,2019-03-17T21:16:28.930513,4,EyesOpen
4192.494355737491,9583.869228824286,-6087.676416358521,-6698.259019644144,34431.05184209965,-3250.9941757910465,6460.838790039872,4696.861469371494,0.0,0.0,0.0,2019-03-17T21:16:28.931160,4,EyesOpen
3717.3186203621176,9104.04433060221,-6607.220364477678,-7210.7398165154245,34013.40949695224,-3365.837438802414,5979.315159239192,4222.065713651862,0.002,1.012,0.23600000000000002,2019-03-17T21:16:28.937859,4,EyesOpen
3937.751524180356,9317.36937968366,-6430.239251880557,-7026.069703825678,34033.436659984196,-3923.289945517772,6138.414876272068,4319.452264243635,0.0,0.0,0.0,2019-03-17T21:16:28.938607,4,EyesOpen
4441.291623269513,9832.107702744926,-5876.4077277669585,-6479.904828060249,34460.75731048075,-3871.0986222146303,6650.046306854047,4814.319886484133,0.0,0.0,0.0,2019-03-17T21:16:28.945283,4,EyesOpen
4282.3260167033695,9680.048785215473,-5983.025548818773,-6593.250524193111,34496.02836323123,-3307.253516585054,6554.179674885235,4781.999264001759,0.0,0.0,0.0,2019-03-17T21:16:28.946122,4,EyesOpen
3755.8083243141564,9146.266775878285,-6546.53537828152,-7148.5796151852155,34075.32382909344,-3281.0572720834343,6031.707648242432,4284.672949871177,0.0,0.0,0.0,2019-03-17T21:16:28.953612,4,EyesOpen
3854.491276084337,9229.30350652975,-6512.046636586981,-7098.5117076053275,33987.48147338408,-3831.7372002288344,6056.652195054555,4252.397030877713,0.0,0.0,0.0,2019-03-17T21:16:28.954345,4,EyesOpen
4408.2333932201145,9786.912475456294,-5932.845882516609,-6520.361485524355,34413.796295380154,-3915.8244628697,6590.1212799693685,4753.120810165502,0.0,0.0,0.0,2019-03-17T21:16:28.961231,4,EyesOpen
4360.937101952684,9744.198291802204,-5915.3221148636485,-6515.041770343992,34543.59287543212,-3394.6041339163944,6615.624620392874,4823.931136599915,0.0,0.0,0.0,2019-03-17T21:16:28.961877,4,EyesOpen
3810.950077885399,9198.659264881524,-6474.741575091073,-7073.745974748847,34151.87855385287,-3231.995193004035,6096.72887286292,4343.122761621805,0.0,0.0,0.0,2019-03-17T21:16:28.967650,4,EyesOpen
3768.4817634203155,9148.52430206827,-6582.164058943279,-7166.170438071542,33963.498051583534,-3746.1300189650083,5990.2228105333825,4190.192126058594,0.0,0.0,0.0,2019-03-17T21:16:28.974868,4,EyesOpen
4312.679685673676,9701.081776747917,-6029.941860430463,-6612.361265702399,34335.31932059757,-3976.688263021501,6497.6744649022185,4652.582663605531,0.008,1.01,0.242,2019-03-17T21:16:28.975705,4,EyesOpen
4433.78143713253,9825.044551497049,-5850.1667797764285,-6442.800932264439,34575.80173919222,-3487.028597239089,6667.972405907203,4864.2089801083785,0.0,0.0,0.0,2019-03-17T21:16:28.982814,4,EyesOpen
3938.3997247695597,9315.961219782976,-6351.739925353519,-6944.776409241726,34262.56439239554,-3166.10225034979,6207.973505016984,4455.060297853983,0.0,0.0,0.0,2019-03-17T21:16:28.983480,4,EyesOpen
3735.177664181908,9109.699321949402,-6613.2106319917,-7199.630999521137,33975.41153137822,-3626.6822965958477,5965.70294686591,4171.483715949502,0.0,0.0,0.0,2019-03-17T21:16:28.990865,4,EyesOpen
4230.917004456163,9601.191830777148,-6128.6918674340095,-6714.352275651965,34266.96768605324,-3994.010864974364,6410.189737104147,4560.739345638674,0.0,0.0,0.0,2019-03-17T21:16:28.991750,4,EyesOpen
4486.732719747152,9860.00267982515,-5815.231003192783,-6413.430740050166,34587.62581200908,-3585.37627284244,6701.745891779172,4885.532544318741,0.0,0.0,0.0,2019-03-17T21:16:28.997381,4,EyesOpen
4041.8212463642653,9416.231145409483,-6240.696458899553,-6847.322803416587,34351.63609404994,-3155.3734130112425,6311.372674867234,4556.693679892263,0.0,0.0,0.0,2019-03-17T21:16:28.998350,4,EyesOpen
3724.560585565637,9105.519545736259,-6617.390408204843,-7216.394807862617,33996.06454325492,-3511.9731440512114,5960.450286918913,4180.670282920633,0.0,0.0,0.0,2019-03-17T21:16:29.005621,4,EyesOpen
4136.39147715467,9518.356265825782,-6232.292202984358,-6828.100303185022,34187.52958625908,-3987.9535422269755,6309.383369610712,4466.079707870449,0.0,0.0,0.0,2019-03-17T21:16:29.006430,4,EyesOpen
4499.786138509052,9876.922950377817,-5811.945296757853,-6421.410312820711,34560.468442495876,-3702.9240969329,6694.548630064563,4864.276035341744,0.0,0.0,0.0,2019-03-17T21:16:29.013688,4,EyesOpen
4120.208814169027,9494.417547514147,-6154.038745646328,-6770.343395512509,34401.86046384102,-3204.5472508129183,6379.947826856116,4616.082264910015,0.01,1.016,0.24,2019-03-17T21:16:29.014337,4,EyesOpen
3710.2331173697853,9076.439926199904,-6613.88118432536,-7221.021618964865,34008.69327887217,-3423.3261255414636,5953.051859504207,4183.576009699823,0.0,0.0,0.0,2019-03-17T21:16:29.020256,4,EyesOpen
4009.634734348623,9383.150563615629,-6352.857512576284,-6948.017412187745,34092.55702406848,-3970.1168501516404,6196.395301389134,4360.467715319123,0.0,0.0,0.0,2019-03-17T21:16:29.020900,4,EyesOpen
4472.226437595658,9851.62077565441,-5849.652689653956,-6449.03706896747,34507.204235458885,-3806.815005161167,6664.440830283264,4828.088561068602,0.0,0.0,0.0,2019-03-17T21:16:29.027275,4,EyesOpen
4227.005449176485,9600.700092399133,-6050.080782184695,-6653.086144099969,34472.044941430686,-3240.466504152597,6486.14096476328,4717.4027225259215,0.0,0.0,0.0,2019-03-17T21:16:29.035180,4,EyesOpen
3743.0901817190866,9113.99085688482,-6573.089250694425,-7164.762278170858,34064.05854988797,-3315.344848077875,6006.696046196944,4249.64776630971,0.0,0.0,0.0,2019-03-17T21:16:29.035866,4,EyesOpen
3928.6320124425906,9309.345103424204,-6433.189682148658,-7011.205793762898,34053.73204394961,-3877.714738573401,6137.520806493856,4316.211261297615,0.0,0.0,0.0,2019-03-17T21:16:29.043146,4,EyesOpen
4450.858169896384,9834.722856846198,-5880.743966191289,-6465.733822075585,34471.03911293019,-3864.370747133583,6647.587614963963,4807.14497651398,0.0,0.0,0.0,2019-03-17T21:16:29.043834,4,EyesOpen
4333.399752783746,9708.167279740248,-5949.609690858089,-6539.62868924483,34536.5520759287,-3296.390568779775,6590.143631713824,4813.805796361661,0.0,0.0,0.0,2019-03-17T21:16:29.049831,4,EyesOpen
3798.969542857354,9166.606863332614,-6502.055406815459,-7086.039434199266,34134.28773096654,-3231.615213348295,6079.160401721049,4329.510549248523,0.0,0.0,0.0,2019-03-17T21:16:29.050472,4,EyesOpen
