eeg1,eeg2,eeg3,eeg4,eeg5,eeg6,eeg7,eeg8,accx,accy,accz,iso_utc,session_id,command_name
0.0,0.0,0.0,0.0,0.0,0.0,0.0,0.0,0.0,0.0,0.0,2019-03-17T21:17:33.433544,6,EyesOpen
-302.2179367802068,1934.454075629005,-5793.795680260144,-8007.1101197135595,28758.782596443012,-2865.2030664924464,4197.3893877732025,4778.490040122276,0.004,1.008,0.262,2019-03-17T21:17:33.443792,6,EyesOpen
-327.9000911593546,1893.0362931533211,-5842.433076194892,-8093.544315522232,28711.7768778535,-3049.850827437738,4136.592642854767,4681.5952279085195,0.0,0.0,0.0,2019-03-17T21:17:33.451008,6,EyesOpen
-204.89844142179984,1991.9874658569654,-5723.298278248105,-8046.829169610641,28809.02931797854,-3521.539690678083,4223.205652619083,4685.97616982176,0.0,0.0,0.0,2019-03-17T21:17:33.451405,6,EyesOpen
-151.2989582179735,2044.35760311575,-5653.2926146140835,-7944.748752683253,28872.843548398443,-3395.9452385837126,4292.987798808551,4790.04589200567,0.0,0.0,0.0,2019-03-17T21:17:33.457702,6,EyesOpen
-267.3939189188384,1961.1197067641863,-5757.89877866492,-7969.223912861814,28792.39962010379,-2904.184508822502,4220.657553751177,4805.75916835775,0.0,0.0,0.0,2019-03-17T21:17:33.458275,6,EyesOpen
-323.7873701795781,1918.7184475324689,-5820.573070117602,-8052.931195846939,28732.988683341588,-2954.274768146845,4159.972567555019,4720.889594660949,0.0,0.0,0.0,2019-03-17T21:17:33.466519,6,EyesOpen
-206.3513048113948,2004.2809253073842,-5723.3206299925605,-8040.525977674244,28810.593940090414,-3447.4660095531954,4223.719742741554,4695.498012959721,0.0,0.0,0.0,2019-03-17T21:17:33.466909,6,EyesOpen
-124.18629219368604,2087.675283870135,-5640.9097481858435,-7945.464008505823,28886.232243327173,-3458.0830881694665,4303.962505336107,4785.128508225502,0.0,1.006,0.252,2019-03-17T21:17:33.473179,6,EyesOpen
-230.3794301008499,2003.9456491405547,-5735.1223510649625,-7956.952805155851,28815.55602735949,-2966.5235241083533,4250.69829829911,4818.499662697275,0.0,0.0,0.0,2019-03-17T21:17:33.473722,6,EyesOpen
-327.16248359232947,1916.7961975093124,-5838.588576148579,-8058.921463360962,28727.333691994394,-2902.508127988354,4162.185390256094,4729.025629642681,0.0,0.0,0.0,2019-03-17T21:17:33.481188,6,EyesOpen
-227.5631102994812,1968.7640033679013,-5754.23309257425,-8058.4073732384895,28797.65228005079,-3373.5934941284054,4214.376713559236,4689.5748006790645,0.0,0.0,0.0,2019-03-17T21:17:33.481855,6,EyesOpen
-147.05212677146517,2056.3157863993392,-5650.364536090438,-7969.447430306367,28887.036906127563,-3515.415312697329,4302.911973346707,4760.653348046941,0.0,0.0,0.0,2019-03-17T21:17:33.489298,6,EyesOpen
-243.11992444037492,1989.77464315589,-5728.729752150745,-7970.00622391775,28822.820344307467,-3067.84398172426,4253.514618100478,4800.260639221745,0.0,0.0,0.0,2019-03-17T21:17:33.489754,6,EyesOpen
-342.87575994441033,1892.7680722198575,-5846.478741941302,-8063.347108763112,28719.108250034842,-2878.927037588005,4154.742259352477,4723.772969695684,0.0,0.0,0.0,2019-03-17T21:17:33.495829,6,EyesOpen
-258.4755728811709,1959.3092154633066,-5785.6596452784115,-8079.328606048657,28769.243212848094,-3300.771510693015,4191.913210381653,4671.961626048283,0.0,0.0,0.0,2019-03-17T21:17:33.496655,6,EyesOpen
-125.3038794164514,2075.024196508431,-5655.572492548525,-7979.326901355613,28882.61126072541,-3547.0206793571333,4304.923630347685,4743.867187961005,0.0,0.0,0.0,2019-03-17T21:17:33.503006,6,EyesOpen
-180.78090915452353,2034.2099111330406,-5697.839641313511,-7946.603947473043,28850.93883883224,-3147.8408751298043,4287.578676650367,4804.798043346173,0.0,0.0,0.0,2019-03-17T21:17:33.511069,6,EyesOpen
-301.8156053800113,1922.2723749008626,-5826.518634142713,-8028.25486996828,28744.700997436168,-2846.807580805729,4184.000692844474,4744.470685061298,-0.002,1.008,0.252,2019-03-17T21:17:33.511923,6,EyesOpen
-282.39193944834943,1956.4928956619378,-5801.462328608314,-8069.337376277134,28765.30930582396,-3198.802852487904,4187.420509746135,4674.353262705,0.0,0.0,0.0,2019-03-17T21:17:33.518751,6,EyesOpen
-170.34264449389514,2052.6724520531243,-5679.60061783798,-7994.034349207205,28867.076798328973,-3551.6474904593815,4281.834278325353,4714.005257368714,0.0,0.0,0.0,2019-03-17T21:17:33.519384,6,EyesOpen
-185.7876999125123,2027.482036051993,-5697.370254679949,-7944.324069538602,28859.6113156809,-3242.9475477871356,4281.744871347531,4782.982740757792,0.0,0.0,0.0,2019-03-17T21:17:33.525465,6,EyesOpen
-309.66106768382406,1925.356915635695,-5826.697448098355,-8013.972105261339,28751.92061089523,-2851.635557608075,4180.536172453902,4748.493999063254,0.0,0.0,0.0,2019-03-17T21:17:33.526371,6,EyesOpen
-306.7329891601788,1924.5969563242147,-5835.39227669147,-8077.205190325402,28739.940075867187,-3110.468758400531,4159.838457088287,4667.960663790782,0.0,0.0,0.0,2019-03-17T21:17:33.534752,6,EyesOpen
-174.00833058456547,2038.3896873461829,-5688.206039453273,-8001.321017899635,28861.980600593164,-3523.6854581457924,4275.46403115559,4705.288077031145,0.0,0.0,0.0,2019-03-17T21:17:33.535256,6,EyesOpen
-156.90924607625558,2061.1214114572304,-5645.804780221556,-7921.480586705278,28898.48099928868,-3310.069836386423,4320.793368910953,4800.104177010558,0.0,0.0,0.0,2019-03-17T21:17:33.541420,6,EyesOpen
-298.21697452270683,1939.1479419646196,-5787.581895301569,-7995.397805618979,28780.68730600921,-2872.3332729736894,4213.728512970032,4772.119792952513,0.0,0.0,0.0,2019-03-17T21:17:33.542037,6,EyesOpen
-342.7416494776785,1898.9595054339775,-5840.1308465159955,-8086.659978229997,28730.10530830685,-3029.9130713836043,4158.989090798985,4677.326044717556,0.0,0.0,0.0,2019-03-17T21:17:33.548443,6,EyesOpen
-201.9703628981546,2019.7259807260016,-5708.993161796709,-8033.753399104286,28842.869859083876,-3491.4318908967844,4256.50975185749,4691.944085591327,-0.01,1.004,0.25,2019-03-17T21:17:33.548965,6,EyesOpen
-130.55653936344856,2073.683091841113,-5640.775637719112,-7934.891633378463,28908.427525571293,-3392.3913112153186,4325.196662568648,4793.5327641406975,0.0,0.0,0.0,2019-03-17T21:17:33.556200,6,EyesOpen
-279.06152952450867,1963.7348608654572,-5763.553770012113,-7974.521276297722,28809.07402146745,-2910.286535058801,4238.136617915227,4793.912743796438,0.0,0.0,0.0,2019-03-17T21:17:33.556858,6,EyesOpen
-349.0671931585304,1903.4075025805835,-5843.505959928747,-8071.036108855737,28735.64854093177,-2946.5634163097643,4157.692689620578,4693.061672814092,0.0,0.0,0.0,2019-03-17T21:17:33.563223,6,EyesOpen
-232.10051442390855,1980.4316139735718,-5741.403191256904,-8048.997288822805,28822.37330941836,-3434.993736147134,4228.257146865982,4667.580684135042,0.0,0.0,0.0,2019-03-17T21:17:33.570886,6,EyesOpen
-145.04046977048753,2071.2020482065736,-5636.819378950522,-7935.696296178854,28919.044604187562,-3462.9110649718127,4323.386171267769,4763.044984703659,0.0,0.0,0.0,2019-03-17T21:17:33.571560,6,EyesOpen
-242.0917441954308,2000.2352595609736,-5724.70643814879,-7943.564110227122,28847.630780652857,-2975.4865736349316,4262.321205415869,4792.839860062583,0.0,0.0,0.0,2019-03-17T21:17:33.578163,6,EyesOpen
-321.30632654503904,1929.7602092933905,-5816.862680538021,-8028.657201368475,28769.019695403542,-2868.667586883019,4182.458422477058,4718.02857137067,0.0,0.0,0.0,2019-03-17T21:17:33.578904,6,EyesOpen
-225.9537846986991,1997.5530502263368,-5736.1728830543625,-8026.869061812051,28838.89124857083,-3330.2758133740203,4240.640013294222,4682.802222109106,0.0,0.0,0.0,2019-03-17T21:17:33.585616,6,EyesOpen
-136.79267606647923,2081.193277978096,-5636.953489417254,-7944.100552094049,28921.10096467745,-3502.1160247464213,4323.967316623606,4748.359888596522,0.0,0.0,0.0,2019-03-17T21:17:33.586099,6,EyesOpen
-235.4532760922046,2006.7172654530127,-5718.000914812197,-7946.536892239677,28853.28577200005,-3063.9324264445813,4268.646749096722,4784.94969426986,-0.014,1.01,0.244,2019-03-17T21:17:33.594976,6,EyesOpen
-340.10414363195224,1915.5444998198152,-5834.542910402169,-8031.451169425389,28754.60282022987,-2837.218682434402,4174.344739239781,4720.241394071745,0.0,0.0,0.0,2019-03-17T21:17:33.595679,6,EyesOpen
-271.05960500950874,1973.681387148069,-5786.151383656429,-8058.385021494034,28798.926329484744,-3250.591844390851,4205.100739610283,4662.216265465769,0.0,0.0,0.0,2019-03-17T21:17:33.601181,6,EyesOpen
-136.74797257756862,2089.3963681931937,-5644.575434276514,-7952.348345798057,28917.703499520245,-3509.2015277387536,4325.688400946665,4742.056696660125,0.0,0.0,0.0,2019-03-17T21:17:33.601742,6,EyesOpen
-189.9004208922888,2051.800734019367,-5674.236199168707,-7905.94612430884,28898.995089411153,-3107.3171624323327,4321.307459033425,4823.260584266256,0.0,0.0,0.0,2019-03-17T21:17:33.608301,6,EyesOpen
-331.3646115499272,1938.2091686974966,-5816.43799739337,-8001.499831855278,28776.820454218443,-2787.6872167214415,4201.54681224189,4760.98862421377,0.0,0.0,0.0,2019-03-17T21:17:33.608965,6,EyesOpen
-287.4881371841594,1958.1916282405411,-5792.812203504111,-8045.5551201766875,28793.204282904182,-3123.9915637959916,4204.363132043259,4693.352245492011,0.0,0.0,0.0,2019-03-17T21:17:33.616266,6,EyesOpen
-162.3407199788952,2070.7550133174677,-5662.009794951653,-7970.609721018043,28904.58302552498,-3498.830318311491,4309.28222051647,4736.200539612834,0.0,0.0,0.0,2019-03-17T21:17:33.616951,6,EyesOpen
-183.10549057787546,2074.4430511525934,-5668.245931654684,-7923.492243706256,28906.30410984804,-3214.5831840733513,4315.875985130785,4806.832052091605,0.0,0.0,0.0,2019-03-17T21:17:33.623431,6,EyesOpen
-314.6231549529022,1950.6590903591027,-5808.972514745297,-8006.39486389099,28793.83013174893,-2817.3256298691786,4204.541945998901,4762.262673647723,0.0,0.0,0.0,2019-03-17T21:17:33.630280,6,EyesOpen
-338.6512802423573,1921.780636522846,-5831.0336865226855,-8081.295559560724,28771.523090782535,-3064.1335921446794,4169.472058948524,4670.262893469679,-0.012,1.012,0.248,2019-03-17T21:17:33.630953,6,EyesOpen
-213.3250490814506,2023.190501116574,-5704.2992954610945,-8027.204337978881,28874.5646327215,-3508.866251571924,4262.7235368160655,4686.02087331067,0.0,0.0,0.0,2019-03-17T21:17:33.637783,6,EyesOpen
-178.25516203107384,2069.6374260947023,-5654.745478003679,-7936.9032903794405,28929.259351403638,-3309.4439875416742,4325.084903846372,4790.336464683588,0.0,0.0,0.0,2019-03-17T21:17:33.638277,6,EyesOpen
-321.99923062315355,1955.1517909946194,-5782.597456288035,-7992.514430584244,28829.23529496614,-2846.092324983159,4236.057905680884,4775.383147642988,0.0,0.0,0.0,2019-03-17T21:17:33.645961,6,EyesOpen
-374.659940559857,1901.6417147686143,-5856.581730435101,-8100.249838858824,28758.11204410935,-2993.7479488549175,4158.854980332253,4659.422297408855,0.0,0.0,0.0,2019-03-17T21:17:33.646702,6,EyesOpen
-234.31333712498395,2034.3440215997723,-5724.125292792952,-8045.197492265403,28866.80857739551,-3465.6603295398154,4258.990795492029,4669.122954502458,0.0,0.0,0.0,2019-03-17T21:17:33.653886,6,EyesOpen
-171.5272869500264,2090.804528093878,-5638.361649317939,-7938.1326363244825,28944.413834144336,-3391.6984071372044,4340.820531942908,4772.186848185879,0.0,0.0,0.0,2019-03-17T21:17:33.654360,6,EyesOpen
-292.38316921987166,1979.5375441953595,-5748.198121571318,-7967.636939005487,28859.38779823635,-2901.189375065491,4261.494190871023,4781.596932601564,0.0,0.0,0.0,2019-03-17T21:17:33.660568,6,EyesOpen
-346.72025999072315,1911.1412061621197,-5839.616756393523,-8067.325719276157,28775.345239084392,-2906.374979779122,4174.7917741288875,4682.422242453366,0.0,0.0,0.0,2019-03-17T21:17:33.661253,6,EyesOpen
-241.24237790612912,2009.4441782765603,-5747.61697621548,-8055.54634994821,28852.928144088764,-3399.901497352302,4240.5506063164,4654.147285717402,0.0,0.0,0.0,2019-03-17T21:17:33.668597,6,EyesOpen
-169.13565029330854,2078.354606432272,-5645.201283121262,-7955.991680144272,28939.429395130803,-3462.7322510161703,4332.483331261079,4744.135408894469,-0.01,1.01,0.252,2019-03-17T21:17:33.669181,6,EyesOpen
-259.5708083594809,1989.6181809447028,-5729.020324828663,-7958.450372034356,28873.067065842995,-2977.028844002348,4273.117097987783,4778.825316289105,0.0,0.0,0.0,2019-03-17T21:17:33.676950,6,EyesOpen
-365.65218754436825,1911.6999997735024,-5830.921927800408,-8050.472503956856,28783.525977555037,-2852.060240752726,4180.536172453902,4699.543678706131,0.0,0.0,0.0,2019-03-17T21:17:33.677599,6,EyesOpen
-292.31611398650574,1965.970035310988,-5772.136839882951,-8069.136210577037,28829.704681599702,-3325.9619266941463,4214.957858915074,4641.809122778073,0.0,0.0,0.0,2019-03-17T21:17:33.683766,6,EyesOpen
-178.97041785364365,2071.067937739842,-5647.235291866696,-7963.479514536801,28937.462441618736,-3504.6641236143264,4321.530976477978,4722.990658639748,0.0,0.0,0.0,2019-03-17T21:17:33.684245,6,EyesOpen
-244.23751166314028,2027.5714430298142,-5695.26919070115,-7932.790569399664,28904.784191225077,-3046.9674524030033,4298.41927271119,4790.04589200567,0.0,0.0,0.0,2019-03-17T21:17:33.690251,6,EyesOpen
-362.0088531981532,1925.9604127359883,-5831.7265906008,-8035.3403729606125,28791.21497764766,-2808.7872634872515,4186.615846945745,4714.944030635837,0.0,0.0,0.0,2019-03-17T21:17:33.698098,6,EyesOpen
-313.10323632994135,1955.5541223948148,-5804.077482709585,-8079.93210314895,28812.069155224464,-3223.881509766759,4198.059940106862,4645.005422235182,0.0,0.0,0.0,2019-03-17T21:17:33.698770,6,EyesOpen
-175.57295269643697,2085.3283507023275,-5660.26635888414,-7975.795325731675,28939.049415475063,-3504.9099928033347,4322.872081145297,4724.55528075162,0.0,0.0,0.0,2019-03-17T21:17:33.707730,6,EyesOpen
-230.20061614520745,2050.526684585415,-5690.910600532366,-7937.037400846172,28923.403194356346,-3132.7757993669275,4318.3123252764135,4795.5891246305855,0.0,0.0,0.0,2019-03-17T21:17:33.708349,6,EyesOpen
-368.0885276899967,1908.458996827483,-5834.274689468705,-8031.518224658755,28801.385021374826,-2798.88544069355,4204.743111698998,4734.255937845223,-0.01,1.01,0.248,2019-03-17T21:17:33.713873,6,EyesOpen
-331.29755631656127,1922.2053196674967,-5823.1658724744175,-8083.642492728531,28802.726126042144,-3123.0527905288686,4193.053149348873,4656.87419854095,0.0,0.0,0.0,2019-03-17T21:17:33.714363,6,EyesOpen
-182.6137521998587,2053.9241497426215,-5680.449984127282,-8002.304494655668,28917.97172045371,-3511.481405673195,4297.927534333174,4700.460100228799,0.0,0.0,0.0,2019-03-17T21:17:33.720865,6,EyesOpen
-196.96357214016584,2062.5966265912803,-5666.0331089536085,-7937.417380501913,28932.38859562738,-3237.583129117862,4322.335639278369,4784.7261768253065,0.0,0.0,0.0,2019-03-17T21:17:33.721499,6,EyesOpen
-322.7368381901787,1966.193552755541,-5786.397252845437,-7996.940075986395,28833.28096071255,-2804.451025062922,4230.335859100325,4764.3637376265215,0.0,0.0,0.0,2019-03-17T21:17:33.728870,6,EyesOpen
-325.1955300802625,1947.552197879815,-5822.025933507197,-8076.266417058279,28798.948681229198,-3034.1599028301125,4192.516707481946,4668.295939957612,0.0,0.0,0.0,2019-03-17T21:17:33.729534,6,EyesOpen
-210.68754323572438,2064.02713823642,-5694.956266278776,-8020.342352431101,28904.963005180718,-3487.676797828293,4290.03736854045,4686.69142564433,0.0,0.0,0.0,2019-03-17T21:17:33.736176,6,EyesOpen
-189.9227726367441,2084.836612324311,-5650.565701790536,-7941.507749737233,28945.129089966907,-3326.5430720499844,4334.204415584137,4775.114926709524,0.0,0.0,0.0,2019-03-17T21:17:33.736632,6,EyesOpen
-317.1041985874413,1966.9311603225663,-5778.909418452909,-7989.787517760697,28843.98744630664,-2853.669566353508,4237.622527792755,4765.526028338198,0.0,0.0,0.0,2019-03-17T21:17:33.743673,6,EyesOpen
-364.62400729942414,1916.3491626202062,-5840.86845408302,-8077.965149636883,28784.55415779998,-2960.086221705225,4169.740279881988,4666.954835290294,0.0,0.0,0.0,2019-03-17T21:17:33.744350,6,EyesOpen
-229.95474695619907,2025.1127511397306,-5724.885252104432,-8038.536672417721,28880.912528146808,-3442.5933292619384,4254.296929156414,4662.216265465769,-0.014,1.012,0.246,2019-03-17T21:17:33.750614,6,EyesOpen
-161.82662985642312,2094.492565929004,-5641.3791348194045,-7935.4951304787555,28957.221383717228,-3395.1405757833218,4334.874967917796,4761.212141658323,0.0,0.0,0.0,2019-03-17T21:17:33.760073,6,EyesOpen
-289.43273895177117,1988.9476286110437,-5757.13881935344,-7972.263750107736,28862.315876759993,-2912.2981920597786,4250.27361515446,4763.983757970781,0.0,0.0,0.0,2019-03-17T21:17:33.760903,6,EyesOpen
-363.59582705447997,1922.8982237456114,-5841.002564549753,-8064.375289008056,28783.54832929949,-2887.375996992111,4171.34960548277,4675.3143877165785,0.0,0.0,0.0,2019-03-17T21:17:33.766388,6,EyesOpen
-250.54070359953687,2004.996181129954,-5749.181598327351,-8055.4122394814785,28854.448062711726,-3374.5322673955284,4233.8450829798085,4644.938367001816,0.0,0.0,0.0,2019-03-17T21:17:33.767036,6,EyesOpen
-141.41948716872778,2095.31958047385,-5631.566719003525,-7939.831368903086,28961.98230528621,-3453.344518344941,4343.748610466553,4748.471647318798,0.0,0.0,0.0,2019-03-17T21:17:33.773883,6,EyesOpen
-247.45616286470448,2012.618125989214,-5715.989257811219,-7942.692392193365,28895.083534131474,-2974.145468967613,4289.880906329263,4786.357854170544,0.0,0.0,0.0,2019-03-17T21:17:33.774608,6,EyesOpen
-357.73967000718955,1921.7359330339352,-5836.465160425325,-8045.488064943322,28789.6950590247,-2829.484978852866,4186.727605668021,4700.9071351179045,0.0,0.0,0.0,2019-03-17T21:17:33.781143,6,EyesOpen
-257.71561356969045,1995.6308002031806,-5761.251540333216,-8049.131399289537,28849.53067893156,-3276.676330170194,4237.063734181373,4662.059803254581,0.0,0.0,0.0,2019-03-17T21:17:33.781838,6,EyesOpen
-123.58279509339275,2114.5420807054143,-5624.1235880999075,-7935.2045578008365,28966.96674429974,-3474.0198819661,4358.858389718341,4754.171342154902,0.0,0.0,0.0,2019-03-17T21:17:33.789413,6,EyesOpen
-200.5845547419256,2054.5947020762806,-5687.110803974963,-7924.319258251102,28919.938673965775,-3053.9411966730595,4320.0110578550175,4803.479290423309,-0.012,1.012,0.252,2019-03-17T21:17:33.790321,6,EyesOpen
-323.25092831265073,1947.7980670688235,-5819.030799750185,-8019.604744864077,28806.391812132813,-2792.2246208458687,4207.693541967099,4735.865263446005,0.0,0.0,0.0,2019-03-17T21:17:33.795966,6,EyesOpen
-290.08093954097507,1975.134250537664,-5792.454575592826,-8062.810666896185,28823.04386175202,-3191.717349495572,4212.879146680731,4666.776021334651,0.0,0.0,0.0,2019-03-17T21:17:33.796711,6,EyesOpen
-153.02004254103215,2091.676246127635,-5659.059364683552,-7966.944034927373,28940.39052014238,-3506.3181527040188,4328.594127725855,4734.1888826118575,0.0,0.0,0.0,2019-03-17T21:17:33.804031,6,EyesOpen
-188.2240400581408,2068.02810049392,-5680.338225405005,-7917.770197125697,28935.20491542875,-3147.371488496243,4332.863310916819,4811.6153254050405,0.0,0.0,0.0,2019-03-17T21:17:33.804711,6,EyesOpen
-318.49000674367034,1955.5317706503597,-5814.806320048132,-7998.504698098266,28826.50838214259,-2777.4948212498216,4227.653649765689,4764.810772515628,0.0,0.0,0.0,2019-03-17T21:17:33.811145,6,EyesOpen
-302.5755646914917,1957.9457590515328,-5812.571145602602,-8059.323794761157,28819.33347217244,-3085.2559906549445,4210.867489679753,4680.969379063771,0.0,0.0,0.0,2019-03-17T21:17:33.819044,6,EyesOpen
-159.56910366643712,2086.6247518807354,-5669.564684577547,-7981.115040912037,28936.747185796165,-3489.241419940164,4319.161691565716,4718.006219626215,0.0,0.0,0.0,2019-03-17T21:17:33.819979,6,EyesOpen
-150.40488843976124,2100.5275369319365,-5645.268338354628,-7904.917944063895,28967.056151277564,-3225.557890600907,4353.806895471442,4808.6201916480295,0.0,0.0,0.0,2019-03-17T21:17:33.825549,6,EyesOpen
-294.5736401764918,1962.460811431505,-5791.560505814613,-7988.424061348923,28843.18278350625,-2800.539469783243,4237.622527792755,4765.682490549385,0.0,0.0,0.0,2019-03-17T21:17:33.826190,6,EyesOpen
-306.86709962691066,1950.9496630370218,-5821.109511984529,-8063.525922718754,28811.800934291,-3000.9452105695264,4198.350512784781,4677.59426565102,-0.02,1.008,0.252,2019-03-17T21:17:33.833602,6,EyesOpen
-178.38927249780568,2083.517859401448,-5682.238123683706,-7994.481384096312,28929.594627570466,-3459.0665649254997,4310.779787394976,4704.282248530656,0.0,0.0,0.0,2019-03-17T21:17:33.834319,6,EyesOpen
-145.64396687078082,2110.5858219368247,-5621.061399109531,-7899.441766672346,28986.949203842785,-3315.6354207557943,4375.108107937349,4804.976857301815,0.0,0.0,0.0,2019-03-17T21:17:33.841539,6,EyesOpen
-288.53866917355884,1977.5258871943818,-5763.218493845284,-7961.512561024733,28876.10690308892,-2843.0077842483265,4273.161801476694,4789.062415249636,0.0,0.0,0.0,2019-03-17T21:17:33.842172,6,EyesOpen
-334.40444879584896,1924.4181423685723,-5840.287308727183,-8062.83301864064,28807.7999720335,-2927.1397503781022,4202.195012831094,4688.300751245111,0.0,0.0,0.0,2019-03-17T21:17:33.848790,6,EyesOpen
-217.05779040548688,2028.577271530303,-5735.099999320508,-8035.899166571995,28892.11075211892,-3424.3990092753183,4282.013092280995,4677.571913906564,0.0,0.0,0.0,2019-03-17T21:17:33.849695,6,EyesOpen
-138.40200166726135,2109.4011794806934,-5641.535597030592,-7928.119054808504,28978.00850606066,-3400.9520293417013,4368.022604945017,4782.513354124231,0.0,0.0,0.0,2019-03-17T21:17:33.856273,6,EyesOpen
-263.6388258503468,2011.5005387664485,-5757.742316453733,-7964.619453504021,28888.176845094782,-2915.8744711726276,4285.187039993649,4789.621208861018,0.0,0.0,0.0,2019-03-17T21:17:33.856910,6,EyesOpen
-337.42193429731543,1936.8680640301782,-5846.054058796652,-8052.193588279914,28813.94670175871,-2856.597644877153,4206.866527422253,4709.132577077458,0.0,0.0,0.0,2019-03-17T21:17:33.864336,6,EyesOpen
-235.22975864765152,2007.9466113980548,-5758.055240876108,-8044.370477720557,28883.795903181544,-3339.6411943007943,4270.054908997406,4678.510687173687,0.0,0.0,0.0,2019-03-17T21:17:33.864974,6,EyesOpen
-145.75572559305735,2095.0513595403863,-5651.348012846472,-7946.983927128784,28974.812206603554,-3460.184152148265,4367.128535166805,4760.116906180013,-0.018000000000000002,1.002,0.248,2019-03-17T21:17:33.871571,6,EyesOpen
-246.2268169196626,2028.3984575746606,-5726.673391660856,-7940.211348558825,28920.609226299435,-2983.7790708278503,4323.09559858985,4803.792214845684,0.0,0.0,0.0,2019-03-17T21:17:33.877754,6,EyesOpen
-364.60165555496883,1926.9215377475666,-5865.634186939501,-8056.730992404341,28800.781524274535,-2818.085589180659,4203.647876220689,4706.78564390965,0.0,0.0,0.0,2019-03-17T21:17:33.878412,6,EyesOpen
-277.8768870683774,1979.2022680285297,-5807.921982755898,-8073.0254141122605,28845.216792251682,-3264.896960842247,4240.930585972141,4652.806181050084,0.0,0.0,0.0,2019-03-17T21:17:33.885731,6,EyesOpen
-130.62359459681448,2106.964839335065,-5648.486989556192,-7943.072371849105,28978.5896514165,-3481.708882058726,4377.924427738718,4756.652385789441,0.0,0.0,0.0,2019-03-17T21:17:33.886485,6,EyesOpen
-181.22794404362966,2082.4673274120482,-5682.819269039544,-7906.795490598141,28962.563450642047,-3053.9635484175146,4368.8496194898635,4831.061343081158,0.0,0.0,0.0,2019-03-17T21:17:33.893654,6,EyesOpen
-342.8310564554997,1930.81074128279,-5845.070582040618,-8033.306364215179,28827.73772808763,-2792.2246208458687,4230.917004456163,4732.333687822066,0.0,0.0,0.0,2019-03-17T21:17:33.894560,6,EyesOpen
-288.15868951781863,1959.6444916301361,-5802.28934315316,-8059.971995350361,28857.75612089111,-3158.9943956130023,4250.228911665548,4675.7837743501395,0.0,0.0,0.0,2019-03-17T21:17:33.901132,6,EyesOpen
-149.0861355168981,2087.675283870135,-5657.807666994056,-7959.724421468309,28979.26020375016,-3489.4872891291725,4367.9108462227405,4741.497903048743,0.0,0.0,0.0,2019-03-17T21:17:33.901849,6,EyesOpen
-187.91111563576646,2066.1058504707635,-5678.304216659572,-7920.1171302935045,28968.576069900522,-3165.7222706940497,4365.295692121469,4804.373360201521,0.0,0.0,0.0,2019-03-17T21:17:33.908625,6,EyesOpen
-333.2868615730836,1961.4773346754712,-5821.4671398958135,-8008.294762169691,28847.47431844167,-2784.937952153439,4251.368850632769,4754.037231688169,-0.012,1.004,0.248,2019-03-17T21:17:33.909283,6,EyesOpen
-315.76309392012286,1955.0176805278875,-5832.084218512085,-8072.2654548007795,28830.352882188905,-3071.9119992151263,4227.966574188063,4669.704099858296,0.0,0.0,0.0,2019-03-17T21:17:33.916469,6,EyesOpen
-166.27462700302925,2066.508181870959,-5681.74638530569,-7980.1092124115485,28958.04839826207,-3487.699149572748,4350.498837292056,4719.101455104525,0.0,0.0,0.0,2019-03-17T21:17:33.917383,6,EyesOpen
-143.14057149178643,2104.953182334087,-5629.599765491458,-7884.488449631745,29010.530294243134,-3239.3265651853762,4404.858279807363,4830.636659936507,0.0,0.0,0.0,2019-03-17T21:17:33.924610,6,EyesOpen
-315.42781775329325,1967.065270789298,-5789.995883702742,-7981.070337423127,28873.290583287548,-2810.4636443213994,4269.98785376404,4775.427851131899,0.0,0.0,0.0,2019-03-17T21:17:33.925247,6,EyesOpen
-338.45011454225954,1937.6503750861139,-5839.1920732488725,-8061.313100017679,28827.290693198527,-2982.1026899937024,4218.422379305646,4682.221076753268,0.0,0.0,0.0,2019-03-17T21:17:33.931011,6,EyesOpen
-179.61861844284755,2070.2632749394506,-5694.196306967296,-7992.469727095334,28947.185450456793,-3445.342593829941,4330.717543449109,4709.177280566369,0.0,0.0,0.0,2019-03-17T21:17:33.931695,6,EyesOpen
-132.45643764214967,2136.312679804883,-5625.084713111486,-7899.933505050362,29011.69258495481,-3328.9123569622466,4399.404454160268,4804.842746835083,0.0,0.0,0.0,2019-03-17T21:17:33.938286,6,EyesOpen
-272.5571718880143,1996.7483874259458,-5750.969737883775,-7952.817732431618,28911.735583750677,-2840.8173132917063,4301.324999490381,4798.09252000958,0.0,0.0,0.0,2019-03-17T21:17:33.946494,6,EyesOpen
-331.3869632943825,1929.2461191709185,-5830.586651633579,-8052.081829557637,28838.89124857083,-2894.57325870672,4222.736265985521,4700.504803717709,0.0,0.0,0.0,2019-03-17T21:17:33.947286,6,EyesOpen
-200.9421826532105,2042.0106699479427,-5713.351751965493,-8012.072206982638,28932.96974098322,-3382.422433188252,4314.534880463467,4697.64378042743,-0.008,1.008,0.246,2019-03-17T21:17:33.954424,6,EyesOpen
-126.08619047238714,2126.6343744557353,-5618.535651986081,-7912.405778456424,29018.73338445823,-3397.5545641844947,4401.036131505505,4793.868040307527,0.0,0.0,0.0,2019-03-17T21:17:33.955388,6,EyesOpen
-239.14131392733026,2046.4363153500935,-5711.451853686793,-7926.263860018714,28949.152403968863,-2896.182584307502,4333.735028950576,4820.62307842053,0.0,0.0,0.0,2019-03-17T21:17:33.960859,6,EyesOpen
-321.28397480058374,1962.907846320611,-5813.889898525465,-8018.621268108042,28861.08653081495,-2808.9437256984384,4246.183245919138,4734.79237971215,0.0,0.0,0.0,2019-03-17T21:17:33.961583,6,EyesOpen
-244.68454655224642,2018.5860417587808,-5750.90268265041,-8032.568756648155,28905.074763902994,-3311.410941053741,4283.398900437224,4680.321178474567,0.0,0.0,0.0,2019-03-17T21:17:33.968850,6,EyesOpen
-121.8617107703341,2135.1727408376623,-5631.611422492436,-7922.262897761214,29011.424364021346,-3451.2434543661425,4389.815555788941,4774.019691231214,0.0,0.0,0.0,2019-03-17T21:17:33.969603,6,EyesOpen
-219.85175846240026,2058.5062573559594,-5715.139891521918,-7927.940240852862,28956.77434882812,-2989.2328964749454,4338.987688897573,4811.123587027024,0.0,0.0,0.0,2019-03-17T21:17:33.976933,6,EyesOpen
-347.8154954690332,1937.292747174829,-5852.379602477504,-8044.526939931744,28844.590943406936,-2799.488937793844,4223.675039252644,4716.687466703352,0.0,0.0,0.0,2019-03-17T21:17:33.977635,6,EyesOpen
-271.68545385425733,1993.194460057552,-5786.62077028999,-8060.150809306003,28889.137970106363,-3230.944661014636,4263.394089149724,4666.552503890098,0.0,0.0,0.0,2019-03-17T21:17:33.983396,6,EyesOpen
-126.86850152832288,2121.7616941644783,-5628.146902101863,-7939.205520058337,29021.7508699597,-3470.153030175332,4398.912715782251,4764.073164948602,0.0,0.0,0.0,2019-03-17T21:17:33.984094,6,EyesOpen
-194.37076978335023,2072.1855249626074,-5669.162353177351,-7912.785758112163,28999.443828993302,-3065.0276619228916,4381.143078940282,4826.255718023267,-0.012,1.014,0.244,2019-03-17T21:17:33.991418,6,EyesOpen
-347.1672948798293,1939.7067355760023,-5830.3854859334815,-8031.741742103308,28863.27700177157,-2771.996292113816,4245.2891761409255,4738.323955336089,0.0,0.0,0.0,2019-03-17T21:17:33.992097,6,EyesOpen
-325.9107859028323,1963.712509121002,-5822.092988740563,-8084.693024717931,28862.204118037716,-3145.1586657951675,4240.282385382937,4656.87419854095,0.0,0.0,0.0,2019-03-17T21:17:33.998485,6,EyesOpen
-157.2668739875405,2110.2952492589056,-5653.426725080815,-7966.072316893616,29005.702317440788,-3480.9712744917006,4381.791279529486,4737.98867916926,0.0,0.0,0.0,2019-03-17T21:17:34.006323,6,EyesOpen
-162.56423742344828,2104.617906167258,-5650.364536090438,-7903.979170796772,29020.633282736933,-3155.8651513892596,4400.589096616399,4823.372342988532,0.0,0.0,0.0,2019-03-17T21:17:34.006984,6,EyesOpen
-317.7076956877346,1978.6658261616024,-5803.67515130939,-7995.710730041353,28897.519874277103,-2761.6921379199193,4281.767223091987,4767.381223127988,0.0,0.0,0.0,2019-03-17T21:17:34.014394,6,EyesOpen
-327.09542835896355,1959.420974185583,-5830.139616744473,-8073.159524578992,28866.38389425086,-3035.568062730797,4247.256129652993,4671.581646392542,0.0,0.0,0.0,2019-03-17T21:17:34.015159,6,EyesOpen
-180.84796438788945,2087.295304214395,-5691.692911588301,-8002.39390163349,28974.588689159,-3477.417347123307,4354.700965249654,4700.504803717709,0.0,0.0,0.0,2019-03-17T21:17:34.020872,6,EyesOpen
-157.55744666545948,2132.7587524364894,-5641.3791348194045,-7912.182261011871,29022.510829271177,-3255.330414215376,4410.759140343564,4801.735854355795,0.0,0.0,0.0,2019-03-17T21:17:34.021533,6,EyesOpen
-315.76309392012286,1978.263494761407,-5788.81124124661,-7989.809869505152,28904.180694124785,-2799.131309882559,4296.429967454668,4767.090650450069,0.0,0.0,0.0,2019-03-17T21:17:34.028979,6,EyesOpen
-354.5210188056253,1932.040087227832,-5838.812093593132,-8071.17021932247,28855.94562959023,-2946.764582009862,4239.321260371359,4674.487373171732,-0.01,1.01,0.242,2019-03-17T21:17:34.029626,6,EyesOpen
-191.59915347089213,2069.6374260947023,-5683.758042306667,-7991.441546850389,28982.25533750717,-3407.210517789187,4362.613482786833,4711.703027689819,0.0,0.0,0.0,2019-03-17T21:17:34.036043,6,EyesOpen
-127.38259165079495,2139.084296117341,-5608.410311747827,-7896.558391637611,29050.539916818136,-3317.222394612121,4434.0049545770835,4811.011828304748,0.0,0.0,0.0,2019-03-17T21:17:34.036688,6,EyesOpen
-271.1713637317853,2021.9611551715323,-5741.783170912644,-7959.411497045934,28943.743281810675,-2830.51315909781,4329.219976570604,4798.137223498491,0.0,0.0,0.0,2019-03-17T21:17:34.043598,6,EyesOpen
-360.91361771984316,1932.6212325836698,-5853.20661702235,-8082.100222361115,28844.27801898456,-2876.3342352311893,4226.580766031833,4679.024777296159,0.0,0.0,0.0,2019-03-17T21:17:34.044326,6,EyesOpen
-219.20355787319636,2037.674431523613,-5745.404153514404,-8048.416143466967,28935.808412529044,-3377.236828474621,4314.557232207922,4669.279416713645,0.0,0.0,0.0,2019-03-17T21:17:34.051767,6,EyesOpen
-105.32141987340688,2157.1445056372295,-5598.955523843232,-7901.431071928868,29067.28137341516,-3379.6731686202493,4448.958271617684,4805.356836957555,0.0,0.0,0.0,2019-03-17T21:17:34.052438,6,EyesOpen
-254.94399725723235,2043.351774615261,-5713.977600810243,-7938.758485169231,28974.54398567009,-2898.887145386594,4361.1606193972375,4809.603668404063,0.0,0.0,0.0,2019-03-17T21:17:34.058674,6,EyesOpen
-350.6765187593125,1938.9914797534325,-5844.154160517951,-8054.026431325249,28865.42276923928,-2808.630801276064,4246.473818597057,4704.706931675307,0.0,0.0,0.0,2019-03-17T21:17:34.065694,6,EyesOpen
-260.5542851155144,2009.1536055986412,-5770.348700326526,-8054.249948769802,28922.7773455116,-3292.7919379224704,4292.585467408356,4664.987881778226,0.0,0.0,0.0,2019-03-17T21:17:34.066521,6,EyesOpen
-120.36414389182853,2146.2368543430393,-5618.982686875187,-7917.546679681144,29051.881021485453,-3437.8547594374136,4423.0302480495275,4779.652330833952,-0.01,1.016,0.242,2019-03-17T21:17:34.073253,6,EyesOpen
-208.5194240235596,2080.902705300177,-5675.823173025033,-7902.839231829552,29014.41949777836,-2965.6741578190517,4393.9729802576285,4836.246947794789,0.0,0.0,0.0,2019-03-17T21:17:34.074039,6,EyesOpen
-357.2926351180834,1947.0828112462536,-5833.157102245939,-8034.06632352666,28878.923222890287,-2755.7465738948076,4258.074373969362,4731.439618043854,0.0,0.0,0.0,2019-03-17T21:17:34.081411,6,EyesOpen
-303.2684687696062,1984.0302448308762,-5802.1552326864285,-8073.092469345626,28893.451856786236,-3197.975837943058,4266.1880572066375,4655.980128762738,0.0,0.0,0.0,2019-03-17T21:17:34.082233,6,EyesOpen
-137.55263537795966,2134.61394722628,-5635.120646371919,-7944.838159661074,29038.17940213435,-3461.2346841376648,4410.781492088019,4755.534798566675,0.0,0.0,0.0,2019-03-17T21:17:34.089125,6,EyesOpen
-185.22890630112963,2103.6567811556797,-5660.0428414395865,-7906.996656298239,29028.903428185396,-3061.2278653654894,4407.071102508438,4827.19449129039,0.0,0.0,0.0,2019-03-17T21:17:34.089799,6,EyesOpen
-358.8796089744102,1943.3277181777619,-5834.744076102266,-8034.714524115864,28884.578214237477,-2755.16542853897,4263.885827527742,4729.740885465251,0.0,0.0,0.0,2019-03-17T21:17:34.095794,6,EyesOpen
-324.74849519115634,1958.683366618558,-5828.195014976861,-8083.821306684174,28882.343039791947,-3107.0489414988688,4259.057850725395,4651.3980211494,0.0,0.0,0.0,2019-03-17T21:17:34.096363,6,EyesOpen
-172.4884119616046,2095.5654496628586,-5671.889266000899,-7984.266636880236,29008.540988986613,-3485.374568149396,4386.373387142824,4711.993600367738,0.0,0.0,0.0,2019-03-17T21:17:34.103623,6,EyesOpen
-178.41162424226098,2110.9658015925647,-5647.3023471000615,-7909.9023830774295,29038.537030045634,-3171.5337242524297,4421.487977682112,4808.821357348127,0.0,0.0,0.0,2019-03-17T21:17:34.103976,6,EyesOpen
-319.7640561776228,1996.3013525368397,-5795.67322679439,-7995.621323063532,28923.224380400705,-2749.3986784695007,4301.727330890576,4762.866170748016,-0.008,1.012,0.244,2019-03-17T21:17:34.111591,6,EyesOpen
-325.1955300802625,1975.804802871323,-5836.085180769584,-8080.200324082413,28882.00776362512,-3006.7343123834507,4252.93347274464,4658.192951463813,0.0,0.0,0.0,2019-03-17T21:17:34.111865,6,EyesOpen
-175.14826955178614,2099.70052238709,-5675.622007324935,-7986.948846214873,29008.719802942254,-3443.934433929257,4378.863201005841,4707.813824154595,0.0,0.0,0.0,2019-03-17T21:17:34.117781,6,EyesOpen
-138.67022260072503,2128.9142523901764,-5616.345181029461,-7893.5632578806,29065.38147513646,-3247.8649315673033,4434.988431333117,4810.9671248158365,0.0,0.0,0.0,2019-03-17T21:17:34.125313,6,EyesOpen
-314.35493401943853,1985.2819425203734,-5776.517781796191,-7984.780727002708,28937.753014296653,-2792.448138290422,4308.0975780603385,4766.621263816508,0.0,0.0,0.0,2019-03-17T21:17:34.125746,6,EyesOpen
-364.15462066586264,1929.7378575489352,-5848.4680471978245,-8081.206152582902,28871.636554197856,-2921.305945075267,4242.182283661638,4665.345509689511,0.0,0.0,0.0,2019-03-17T21:17:34.133340,6,EyesOpen
-211.53690952502603,2056.7851730329007,-5710.446025186304,-8020.856442553573,28981.137750284404,-3406.6517241778047,4350.05180240295,4684.925637832361,0.0,0.0,0.0,2019-03-17T21:17:34.133777,6,EyesOpen
-138.960795278644,2146.907406676699,-5613.037122850075,-7907.0860632760605,29070.07534147207,-3337.3613163663526,4438.251786023591,4796.0585112641475,0.0,0.0,0.0,2019-03-17T21:17:34.141443,6,EyesOpen
-272.89244805484395,2044.0446786933755,-5738.609223199991,-7952.840084176074,28976.82386360453,-2838.3586214016227,4348.665994246721,4797.153746742457,0.0,0.0,0.0,2019-03-17T21:17:34.142181,6,EyesOpen
-363.52877182111405,1947.775715324368,-5858.705146158355,-8075.953492635906,28876.173958322284,-2850.8532465521394,4244.842141251819,4681.751690119707,0.0,0.0,0.0,2019-03-17T21:17:34.147943,6,EyesOpen
-248.32788089846147,2039.8649024802332,-5746.789961670633,-8043.476407942344,28962.20582273076,-3344.9162059922464,4329.175273081693,4667.647739368408,-0.006,1.012,0.254,2019-03-17T21:17:34.148622,6,EyesOpen
-123.53809160448213,2158.1950376266286,-5608.477366981193,-7909.209478999314,29083.6652021009,-3392.3913112153186,4451.036983852027,4788.436566404887,0.0,0.0,0.0,2019-03-17T21:17:34.156225,6,EyesOpen
-238.51546508258167,2057.545132344381,-5710.714246119767,-7932.254127532737,29012.02786112164,-2905.14563383408,4378.8855527502965,4810.385979459998,0.0,0.0,0.0,2019-03-17T21:17:34.156905,6,EyesOpen
-377.34214989449384,1940.0196599983765,-5856.849951368565,-8061.871893629062,28883.795903181544,-2792.4257865459667,4250.27361515446,4697.196745538324,0.0,0.0,0.0,2019-03-17T21:17:34.164343,6,EyesOpen
-277.98864579065395,2020.0165534039204,-5773.14266838344,-8055.434591225933,28944.92792426681,-3254.458696181619,4309.773958894487,4666.597207379009,0.0,0.0,0.0,2019-03-17T21:17:34.164985,6,EyesOpen
-150.2931297174847,2138.056115872397,-5639.54629177407,-7948.369735285013,29059.03357971115,-3450.34938458793,4426.673582395742,4755.244225888757,0.0,0.0,0.0,2019-03-17T21:17:34.171584,6,EyesOpen
-240.66123255029115,2076.4994116424814,-5704.0087227831755,-7936.970345612806,29014.710070456276,-3004.141510026635,4390.530811611511,4803.90397356796,0.0,0.0,0.0,2019-03-17T21:17:34.172367,6,EyesOpen
-377.9009435058765,1953.7212793494798,-5842.053096539152,-8040.97301256335,28900.939691178763,-2750.8738936035506,4278.079185256861,4723.013010384204,0.0,0.0,0.0,2019-03-17T21:17:34.179591,6,EyesOpen
-308.2976112720503,1998.7153409380128,-5803.786910031666,-8073.3159867901795,28923.58200831199,-3164.783497426927,4297.99458956654,4658.751745075196,0.0,0.0,0.0,2019-03-17T21:17:34.180304,6,EyesOpen
-158.67503388822485,2120.7111621750787,-5645.067172654531,-7953.689450465376,29057.245440154726,-3461.8158294935024,4429.467550452656,4744.425981572388,0.0,0.0,0.0,2019-03-17T21:17:34.187661,6,EyesOpen
-198.57289774094795,2114.318563260861,-5654.566664048036,-7896.290170704147,29062.22987916826,-3074.9071329721373,4434.027306321538,4826.14395930099,0.0,0.0,0.0,2019-03-17T21:17:34.193603,6,EyesOpen
-358.2761118741169,1976.7659278829012,-5810.3136194126155,-8005.389035390501,28932.075671205006,-2728.902128803984,4303.47076695809,4751.220911886801,-0.008,1.014,0.25,2019-03-17T21:17:34.194368,6,EyesOpen
-349.6706902588237,1964.8300963437673,-5826.3398201870705,-8083.7095479618965,28903.24192085766,-3078.2598946404332,4270.434888653146,4647.3747071474445,0.0,0.0,0.0,2019-03-17T21:17:34.201108,6,EyesOpen
-180.088005076409,2105.1319962897296,-5660.31106237305,-7974.565979786633,29042.493288814225,-3461.860532982413,4406.624067619332,4716.441597514343,0.0,0.0,0.0,2019-03-17T21:17:34.201906,6,EyesOpen
-163.43595545720524,2130.7470954355117,-5615.808739162533,-7882.722661819776,29095.243405728746,-3157.1615525676675,4462.592835735421,4830.4578459808645,0.0,0.0,0.0,2019-03-17T21:17:34.208503,6,EyesOpen
-338.9865564091869,1980.4986692069376,-5798.310732640116,-8000.739872543797,28949.979418513707,-2747.811704613174,4315.160729308215,4754.998356699748,0.0,0.0,0.0,2019-03-17T21:17:34.209314,6,EyesOpen
-382.19247844129546,1935.8845872741447,-5858.146352546973,-8103.289676104746,28887.059257872017,-2991.5574778982973,4246.674984297155,4636.735276786719,0.0,0.0,0.0,2019-03-17T21:17:34.216488,6,EyesOpen
-222.35515384139467,2080.6568361111686,-5703.606391382979,-8014.687361083908,29010.664404709867,-3442.973308917679,4368.424936345213,4678.063652284581,0.0,0.0,0.0,2019-03-17T21:17:34.217123,6,EyesOpen
-161.64781590078067,2149.3884503112376,-5617.038085107575,-7895.507859648212,29092.158864993915,-3253.4081641922194,4457.340175788424,4802.696979367373,0.0,0.0,0.0,2019-03-17T21:17:34.224414,6,EyesOpen
-294.08190179847503,2048.5373793288923,-5741.291432534627,-7947.721534695809,28995.55462545808,-2755.2101320278803,4364.2675118765255,4793.778633329705,0.0,0.0,0.0,2019-03-17T21:17:34.225322,6,EyesOpen
-370.2119434132509,1961.0973550197311,-5832.665363867923,-8065.694041930919,28912.29437736206,-2871.1709822620132,4276.313397444892,4676.789602850628,0.0,0.0,0.0,2019-03-17T21:17:34.231182,6,EyesOpen
-228.99362194462086,2061.300225412873,-5706.623876884446,-8019.11300648606,29009.92679714284,-3370.8889330493134,4374.236389903592,4678.756556362696,-0.018000000000000002,1.012,0.248,2019-03-17T21:17:34.232111,6,EyesOpen
-145.84513257087858,2128.7801419234447,-5615.249945551151,-7914.819766857597,29092.538844649654,-3335.237900643099,4459.105963600393,4778.490040122276,0.0,0.0,0.0,2019-03-17T21:17:34.239046,6,EyesOpen
-298.97693383418726,2020.4412365485714,-5741.425543001359,-7962.876017436507,28998.259186537172,-2842.1360662145694,4366.480334577601,4777.037176732681,0.0,0.0,0.0,2019-03-17T21:17:34.239614,6,EyesOpen
-389.68031283382334,1945.2946716898289,-5852.826637366609,-8073.472449001366,28905.275929603093,-2814.2634408788017,4272.848877054319,4673.7274138602515,0.0,0.0,0.0,2019-03-17T21:17:34.246097,6,EyesOpen
-261.7389275716457,2049.520856084926,-5741.917281379376,-8038.581375906632,28992.537139956614,-3293.9989321230573,4363.887532220785,4665.904303300894,0.0,0.0,0.0,2019-03-17T21:17:34.253214,6,EyesOpen
-141.55359763545962,2166.129906908263,-5602.934134356276,-7904.783833597164,29112.990690826264,-3373.2358662171205,4487.917362203284,4783.876810536005,0.0,0.0,0.0,2019-03-17T21:17:34.254016,6,EyesOpen
-256.24039843564015,2072.990187762998,-5702.019417526653,-7921.547641938644,29039.609913779488,-2895.310866273745,4415.855338079374,4807.971991058826,0.0,0.0,0.0,2019-03-17T21:17:34.260798,6,EyesOpen
-382.48305111921445,1953.8330380717562,-5844.645898895968,-8047.946756833406,28911.80263898404,-2756.0147948282715,4285.924647560674,4697.219097282779,0.0,0.0,0.0,2019-03-17T21:17:34.261443,6,EyesOpen
-287.1528610173298,2037.0485826788645,-5769.924017181876,-8049.623137667554,28961.311752952548,-3215.4101986181977,4332.550386494445,4657.678861341341,0.0,0.0,0.0,2019-03-17T21:17:34.268972,6,EyesOpen
-150.606054139859,2166.3981278417264,-5613.327695527994,-7918.485452948267,29097.5679871521,-3418.3640382723856,4463.665719469276,4761.3686038695105,0.0,0.0,0.0,2019-03-17T21:17:34.269625,6,EyesOpen
-219.91881369576618,2107.0989498017966,-5660.556931562059,-7896.960723037806,29071.975239750773,-2979.8451638037163,4435.055486566483,4820.153691786968,-0.018000000000000002,1.01,0.234,2019-03-17T21:17:34.276789,6,EyesOpen
-355.66095777284596,1980.3422069957505,-5815.588631104068,-8019.515337886255,28939.116470708428,-2712.294782673691,4298.978066322573,4728.913870920404,0.0,0.0,0.0,2019-03-17T21:17:34.277504,6,EyesOpen
-315.71839043121224,2008.6618672206246,-5794.5779913160795,-8065.761097164285,28944.34677891097,-3117.755427092961,4303.9848570805625,4651.5991868494975,0.0,0.0,0.0,2019-03-17T21:17:34.283389,6,EyesOpen
-160.30671123346227,2149.611967755791,-5628.884509668888,-7940.8371974035745,29084.067533501093,-3429.696372711226,4450.344079773913,4740.335612337067,0.0,0.0,0.0,2019-03-17T21:17:34.284088,6,EyesOpen
-192.3591127823726,2125.89676688871,-5636.618213250425,-7889.204667711815,29088.068495758595,-3067.620464279707,4455.21676006517,4817.829110363617,0.0,0.0,0.0,2019-03-17T21:17:34.291430,6,EyesOpen
-336.48316103019255,2000.8834601501776,-5788.654779035423,-7986.479459581311,28968.330200711516,-2687.2384771392917,4333.399752783746,4755.2665776332105,0.0,0.0,0.0,2019-03-17T21:17:34.292271,6,EyesOpen
-335.74555346316737,1996.3684077702055,-5812.526442113691,-8061.335451762135,28941.038720731583,-3008.1648240285904,4301.637923912755,4655.44368689581,0.0,0.0,0.0,2019-03-17T21:17:34.299457,6,EyesOpen
-175.88587711881127,2148.6508427442127,-5641.714410986235,-7952.527159753699,29080.580661366068,-3407.9481253562126,4446.700745427697,4723.527100506675,0.0,0.0,0.0,2019-03-17T21:17:34.300257,6,EyesOpen
-173.18131603971912,2159.312624849394,-5608.007980347631,-7878.60994084,29119.18212404038,-3150.277215275433,4491.583048293955,4816.085674296102,0.0,0.0,0.0,2019-03-17T21:17:34.306609,6,EyesOpen
-335.34322206297185,2017.7143237250239,-5767.174752613873,-7977.136430398993,28994.705259168775,-2712.384189651512,4364.848657232364,4762.128563180991,0.0,0.0,0.0,2019-03-17T21:17:34.312816,6,EyesOpen
-355.370385094927,1977.3917767276498,-5820.126035228495,-8063.078887829649,28946.090214978485,-2911.4264740260214,4310.980953095073,4666.127820745447,-0.012,1.01,0.246,2019-03-17T21:17:34.313449,6,EyesOpen
-205.65840073328027,2104.7967201229003,-5684.249780684684,-7994.861363752051,29056.731350032253,-3387.943314068713,4416.749407857586,4693.084024558548,0.0,0.0,0.0,2019-03-17T21:17:34.320890,6,EyesOpen
-164.0171008130432,2155.9822149255533,-5615.384056017882,-7898.972380038784,29123.38425199798,-3253.7657921035043,4481.837687711441,4795.387958930488,0.0,0.0,0.0,2019-03-17T21:17:34.321641,6,EyesOpen
-318.24413755466196,2024.9562889285432,-5758.882255420954,-7971.794363474174,29009.099782597994,-2772.868010147573,4370.05661369045,4771.158667940935,0.0,0.0,0.0,2019-03-17T21:17:34.329004,6,EyesOpen
-375.88928650489885,1962.0808317757646,-5844.601195407056,-8074.008890868294,28929.48286884819,-2845.868807538606,4290.327941218369,4668.2735882131565,0.0,0.0,0.0,2019-03-17T21:17:34.329670,6,EyesOpen
-240.8176947614783,2078.153440732174,-5721.800711369599,-8019.135358230515,29026.847067695508,-3339.462380345152,4384.808765030953,4675.157925505391,0.0,0.0,0.0,2019-03-17T21:17:34.336199,6,EyesOpen
-149.7566878505573,2164.9676161965867,-5613.931192628288,-7892.758595080209,29125.19474329886,-3319.614031268839,4487.336216847446,4792.5939908735745,0.0,0.0,0.0,2019-03-17T21:17:34.336984,6,EyesOpen
-283.50952667111477,2049.3420421292835,-5728.282717261639,-7931.494168221256,29037.374739333958,-2818.711438025408,4402.757215828564,4799.992418288281,0.0,0.0,0.0,2019-03-17T21:17:34.343770,6,EyesOpen
-388.76389131115576,1951.2849392038513,-5848.937433831386,-8052.662974913475,28925.481906590692,-2769.6493589460088,4292.473708686079,4687.5854954225415,0.0,0.0,0.0,2019-03-17T21:17:34.344698,6,EyesOpen
-268.5115061416037,2057.9027602556657,-5746.544092481625,-8029.461864168867,29002.68483193932,-3252.8270188363817,4365.742727010575,4669.5029341581985,0.0,0.0,0.0,2019-03-17T21:17:34.351502,6,EyesOpen
-151.3213099624288,2178.155145425218,-5609.192622803763,-7906.862545831507,29124.613597943022,-3365.2115899576656,4487.045644169527,4778.020653488714,-0.016,1.012,0.254,2019-03-17T21:17:34.352408,6,EyesOpen
-254.00522399010947,2084.8142605798557,-5690.396510409893,-7913.478662190279,29072.310515917605,-2890.661703427041,4437.357716245379,4816.532709185209,0.0,0.0,0.0,2019-03-17T21:17:34.360380,6,EyesOpen
-395.5811733700244,1957.0069857844098,-5840.332012216093,-8044.25871899828,28941.57516259851,-2725.34820143559,4305.728293148076,4705.198670053323,0.0,0.0,0.0,2019-03-17T21:17:34.361085,6,EyesOpen
-313.2820502855838,2022.8775766942,-5781.301055109627,-8064.26353028578,28973.716971125243,-3187.2246488600554,4336.2160725851145,4645.675974568841,0.0,0.0,0.0,2019-03-17T21:17:34.366210,6,EyesOpen
-153.28826347449584,2173.1707064116845,-5606.465709980215,-7921.301772749636,29122.91486536442,-3405.4223782327626,4484.877524957362,4759.669871290907,0.0,0.0,0.0,2019-03-17T21:17:34.372819,6,EyesOpen
-217.21425261667403,2103.2097462665733,-5651.2362541241955,-7894.32321719208,29102.172446509892,-2978.2358382029342,4465.520914259067,4821.897127854482,0.0,0.0,0.0,2019-03-17T21:17:34.373182,6,EyesOpen
-374.92816149332066,1951.6649188595916,-5820.193090461861,-8022.06343675416,28961.40115993037,-2697.386169122001,4323.386171267769,4722.834196428561,0.0,0.0,0.0,2019-03-17T21:17:34.380957,6,EyesOpen
-335.4549807852484,1992.389797257161,-5801.52938384168,-8065.9846146088385,28967.614944888945,-3080.919752230615,4323.85555790133,4648.089962970014,0.0,0.0,0.0,2019-03-17T21:17:34.381336,6,EyesOpen
-173.31542650645096,2149.1649328666845,-5641.155617374852,-7951.834255675585,29102.8206470991,-3424.130788341855,4454.277986798047,4722.297754561634,0.0,0.0,0.0,2019-03-17T21:17:34.388379,6,EyesOpen
-202.1938803427077,2136.8044181829,-5634.897128927366,-7882.096812975027,29123.361900253523,-3076.4717550840087,4472.919341673773,4811.414159704943,0.0,0.0,0.0,2019-03-17T21:17:34.389012,6,EyesOpen
-365.8310015000107,1985.8854396206666,-5803.5633925871125,-7989.988683460794,28987.373886987436,-2692.647599297476,4336.931328407684,4740.134446636969,-0.016,1.004,0.252,2019-03-17T21:17:34.395697,6,EyesOpen
-371.84362075848827,1969.479259190471,-5826.25041320925,-8065.895207631017,28960.328276196517,-2980.5827713707413,4307.762301893509,4646.212416435768,0.0,0.0,0.0,2019-03-17T21:17:34.396443,6,EyesOpen
-200.51749950855967,2119.414760996671,-5660.5122280731475,-7967.569883772121,29092.918824305398,-3399.00742757409,4438.564710445966,4700.97419035127,0.0,0.0,0.0,2019-03-17T21:17:34.403975,6,EyesOpen
-161.58076066741475,2165.0123196854975,-5598.597895931947,-7867.657586056899,29153.603810501554,-3148.399668741187,4501.708388532208,4815.3704184735325,0.0,0.0,0.0,2019-03-17T21:17:34.404677,6,EyesOpen
-333.8456551844663,2027.8396639632779,-5756.580025742058,-7958.919758667917,29029.775146219155,-2698.906087744962,4378.2373521610925,4767.381223127988,0.0,0.0,0.0,2019-03-17T21:17:34.411943,6,EyesOpen
-383.3547691529714,1973.3684627256946,-5830.609003378035,-8060.016698839271,28958.808357573555,-2884.2020492794572,4304.007208825017,4650.816875793562,0.0,0.0,0.0,2019-03-17T21:17:34.412860,6,EyesOpen
-231.11703766787502,2103.053284055386,-5688.541315620103,-7989.429889849412,29063.50392860221,-3365.7033283356823,4413.463701422656,4675.537905161132,0.0,0.0,0.0,2019-03-17T21:17:34.421480,6,EyesOpen
-163.3241967349287,2167.471011575581,-5606.06337858002,-7884.734318820753,29135.990635870774,-3250.591844390851,4489.4596325707,4784.346197169566,0.0,0.0,0.0,2019-03-17T21:17:34.422238,6,EyesOpen
-317.1041985874413,2051.3313473858057,-5748.287528549138,-7947.632127717988,29028.83637295203,-2760.5969024416095,4382.148907440771,4767.157705683435,0.0,0.0,0.0,2019-03-17T21:17:34.427695,6,EyesOpen
-411.9873538002198,1960.0468230303316,-5859.77802989221,-8073.628911212553,28928.320578136514,-2824.545243328243,4279.621455624278,4643.753724545685,0.0,0.0,0.0,2019-03-17T21:17:34.428351,6,EyesOpen
-278.36862544639416,2078.846344810289,-5731.747237652211,-8026.846710067596,29024.097803127504,-3317.8258917124144,4376.806840515953,4646.391230391411,-0.012,1.012,0.26,2019-03-17T21:17:34.433920,6,EyesOpen
-160.1726007667304,2190.269790919994,-5608.0973873254525,-7897.8100893271085,29137.08587134908,-3321.268060358532,4494.55583030651,4768.364699884021,0.0,0.0,0.0,2019-03-17T21:17:34.441514,6,EyesOpen
-295.3559512324275,2065.6811673261127,-5718.515004934669,-7932.902328121941,29059.145338433427,-2823.22649040538,4417.956402058173,4783.116851224524,0.0,0.0,0.0,2019-03-17T21:17:34.442308,6,EyesOpen
-427.5665196855688,1944.3335466782507,-5858.705146158355,-8068.59976871011,28936.903648007352,-2759.859294874584,4288.070415028384,4660.785753820629,0.0,0.0,0.0,2019-03-17T21:17:34.448135,6,EyesOpen
-308.67759092779056,2042.9494432150655,-5758.055240876108,-8045.868044599062,29010.574997732045,-3233.6939255826387,4360.802991485953,4641.406791377877,0.0,0.0,0.0,2019-03-17T21:17:34.449062,6,EyesOpen
-155.7246036201243,2180.837354759855,-5596.921515097799,-7904.627371385976,29146.361845298037,-3361.6576625892717,4501.015484454094,4763.760240526229,0.0,0.0,0.0,2019-03-17T21:17:34.456125,6,EyesOpen
-250.9653867441877,2110.7199324035564,-5675.040861969097,-7904.806185341619,29093.835245828064,-2896.2049360519572,4449.651175695798,4805.178023001912,0.0,0.0,0.0,2019-03-17T21:17:34.456820,6,EyesOpen
-403.38193218492654,1969.9262940795772,-5833.559433646135,-8038.491968928811,28958.562488384545,-2708.0479512271827,4311.003304839529,4693.3969489809215,0.0,0.0,0.0,2019-03-17T21:17:34.464307,6,EyesOpen
-348.6201582694243,2023.2128528610294,-5787.984226701764,-8069.31502453268,28984.065828808052,-3160.402555513687,4332.729200450087,4626.811102248562,0.0,0.0,0.0,2019-03-17T21:17:34.465067,6,EyesOpen
-187.75465342457932,2174.511811079003,-5609.438491992771,-7921.324124494091,29137.599961471555,-3402.740168898126,4490.688978515742,4744.291871105655,0.0,0.0,0.0,2019-03-17T21:17:34.471402,6,EyesOpen
-249.17724718776313,2121.247604042006,-5639.769809218623,-7880.308673418603,29127.362862511025,-2989.8587453196938,4483.335254589946,4819.7737121312275,-0.008,1.014,0.25,2019-03-17T21:17:34.472190,6,EyesOpen
-412.8814235784321,1965.679462633069,-5821.109511984529,-8014.6203058505425,28974.633392647913,-2696.603858066065,4330.158749837727,4717.8721091594825,0.0,0.0,0.0,2019-03-17T21:17:34.478758,6,EyesOpen
-375.4869551047033,1988.098262321742,-5816.326238671093,-8069.113858832581,28967.391427444392,-3068.7156997580173,4318.088807831861,4633.58368081852,0.0,0.0,0.0,2019-03-17T21:17:34.479556,6,EyesOpen
-195.5777639839368,2151.3554038233046,-5639.814512707533,-7941.038363103672,29118.086888562073,-3418.4534452502066,4465.610321236887,4721.090760361048,0.0,0.0,0.0,2019-03-17T21:17:34.486912,6,EyesOpen
-212.56508976997017,2152.316528834883,-5632.773713204112,-7881.202743196815,29136.191801570872,-3102.8691652857265,4486.844478469429,4804.239249734789,0.0,0.0,0.0,2019-03-17T21:17:34.487576,6,EyesOpen
-372.96120798125366,2014.5403760123702,-5783.469174321792,-7979.550418800166,29011.022032621153,-2696.4697475993335,4357.986671684584,4745.968251939804,0.0,0.0,0.0,2019-03-17T21:17:34.494186,6,EyesOpen
-371.9777312252201,2006.7172654530127,-5799.920058240898,-8044.370477720557,28987.999735832185,-2945.311718620267,4330.494026004556,4664.429088166844,0.0,0.0,0.0,2019-03-17T21:17:34.500441,6,EyesOpen
-218.9800404286433,2141.5876914963355,-5651.772695991122,-7958.293909823169,29109.28030124668,-3391.9889798151235,4454.680318198242,4706.651533442919,0.0,0.0,0.0,2019-03-17T21:17:34.501118,6,EyesOpen
-192.80614767147873,2173.1707064116845,-5603.2247070341955,-7871.32327214757,29159.236450104294,-3190.5774105283513,4505.172908922781,4804.418063690432,0.0,0.0,0.0,2019-03-17T21:17:34.508321,6,EyesOpen
-351.88351295989906,2024.062219150331,-5760.2457118327275,-7958.182151100893,29035.340730588527,-2731.6513933719866,4377.611503316343,4762.106211436536,0.0,0.0,0.0,2019-03-17T21:17:34.509090,6,EyesOpen
-397.61518211545734,1973.5249249368817,-5830.3854859334815,-8056.954509848894,28969.559546656557,-2881.2292672669014,4303.359008235813,4658.505875886188,-0.016,1.01,0.252,2019-03-17T21:17:34.516500,6,EyesOpen
-232.18992140172978,2125.9414703776206,-5671.889266000899,-7972.219046618825,29097.18800749636,-3349.6547758167717,4429.869881852851,4702.203536296312,0.0,0.0,0.0,2019-03-17T21:17:34.517139,6,EyesOpen
-175.57295269643697,2195.2542299335278,-5589.456032449727,-7870.65271981391,29170.501729309766,-3271.8930568567584,4504.837632755952,4806.7426451137835,0.0,0.0,0.0,2019-03-17T21:17:34.523735,6,EyesOpen
-337.08665813048583,2057.9027602556657,-5732.820121386066,-7935.115150823016,29061.64873381242,-2783.887420164039,4395.425843647224,4790.783499572694,0.0,0.0,0.0,2019-03-17T21:17:34.524569,6,EyesOpen
-425.10782779548504,1965.7912213553454,-5840.577881405102,-8048.192626022414,28968.330200711516,-2804.383969829556,4298.665141900199,4680.745861619218,0.0,0.0,0.0,2019-03-17T21:17:34.531240,6,EyesOpen
-291.08676804146387,2087.5635251478584,-5717.889156089921,-8003.645599322987,29060.620553567478,-3291.9202198887137,4391.246067434081,4681.706986630797,0.0,0.0,0.0,2019-03-17T21:17:34.531908,6,EyesOpen
-169.9626648381549,2213.4261981756927,-5576.894352065844,-7866.629405811955,29184.739790527798,-3319.301106846465,4516.371132894889,4810.184813759901,0.0,0.0,0.0,2019-03-17T21:17:34.539066,6,EyesOpen
-283.2860092265617,2113.804473138389,-5674.817344524544,-7888.5117636337,29116.365804239013,-2822.7794555162736,4445.247882038103,4835.4422849943985,0.0,0.0,0.0,2019-03-17T21:17:34.539703,6,EyesOpen
-416.5024061801918,1985.103128564731,-5820.036628250674,-8022.845747810095,28989.474950966236,-2726.354029936079,4315.339543263858,4718.386199281955,0.0,0.0,0.0,2019-03-17T21:17:34.547185,6,EyesOpen
-341.0876203879858,2031.9523849430545,-5756.71413620879,-8034.938041560417,29031.965617175774,-3221.534576598952,4351.90699719274,4663.6914805998185,0.0,0.0,0.0,2019-03-17T21:17:34.547885,6,EyesOpen
-190.4815662481268,2158.954996938109,-5599.715483154712,-7900.112319006004,29164.287944351192,-3386.937485568224,4484.74341449063,4776.210162187835,-0.018000000000000002,1.008,0.248,2019-03-17T21:17:34.553343,6,EyesOpen
-271.70780559871264,2099.5887636648135,-5661.965091462743,-7887.930618277863,29128.256932289238,-2929.173759123535,4455.1944083207145,4830.122569814035,0.0,0.0,0.0,2019-03-17T21:17:34.560549,6,EyesOpen
-424.6607929063789,1968.6969481345354,-5822.942355029864,-8016.363741918057,28992.850064378985,-2706.684494815409,4315.808929897419,4723.281231317667,0.0,0.0,0.0,2019-03-17T21:17:34.561114,6,EyesOpen
-366.70271953376766,2017.870785936211,-5788.05128193513,-8046.560948677176,29010.910273898873,-3131.881729588715,4327.81181666992,4655.175465962347,0.0,0.0,0.0,2019-03-17T21:17:34.568578,6,EyesOpen
-198.57289774094795,2169.3038546209164,-5614.06530309502,-7907.577801654077,29163.796205973176,-3401.8237473754584,4478.708443487697,4759.3122433796225,0.0,0.0,0.0,2019-03-17T21:17:34.569388,6,EyesOpen
-257.536799614048,2124.8462348993107,-5647.548216289069,-7877.313539661592,29153.223830845815,-3022.6487544356296,4465.699728214709,4822.657087165962,0.0,0.0,0.0,2019-03-17T21:17:34.576798,6,EyesOpen
-430.6957639093118,1972.7202621364906,-5816.192128204361,-8002.5280121002215,29011.51377099917,-2699.5989918230766,4320.256927044025,4734.390048311955,0.0,0.0,0.0,2019-03-17T21:17:34.577464,6,EyesOpen
-417.28471723612756,1990.422843745094,-5818.7625788167215,-8064.285882030235,28998.683869681823,-3046.8556936807267,4304.454243714124,4651.241558938213,0.0,0.0,0.0,2019-03-17T21:17:34.584912,6,EyesOpen
-240.95180522821013,2150.148409622718,-5639.7921609630785,-7937.663249690921,29152.687388978888,-3407.0093520890896,4460.424716523256,4744.291871105655,0.0,0.0,0.0,2019-03-17T21:17:34.585670,6,EyesOpen
-242.24820640661795,2152.249473601517,-5619.273259553106,-7862.092001687527,29189.05367720767,-3103.2938484303772,4498.154461163815,4844.740610687806,0.0,0.0,0.0,2019-03-17T21:17:34.592968,6,EyesOpen
-411.71913286675607,1996.3907595146609,-5783.737395255255,-7963.032479647694,29059.122986688973,-2683.706901515353,4370.213075901637,4786.559019870641,-0.018000000000000002,1.004,0.25,2019-03-17T21:17:34.593634,6,EyesOpen
-433.1768075438509,1968.875762090178,-5832.330087701093,-8056.216902281869,29007.065773852562,-2931.8336167137168,4315.697171175143,4679.136536018435,0.0,0.0,0.0,2019-03-17T21:17:34.600871,6,EyesOpen
-256.4639158801932,2122.0299150979417,-5665.8542949979665,-7960.1491046129595,29140.05865336164,-3373.928770295235,4448.287719284024,4732.132522121969,0.0,0.0,0.0,2019-03-17T21:17:34.601791,6,EyesOpen
-203.5349850100261,2177.3281308803716,-5596.563887186514,-7853.3748213499575,29209.751392573286,-3183.4472040471082,4519.768598052096,4846.215825821856,0.0,0.0,0.0,2019-03-17T21:17:34.607269,6,EyesOpen
-352.4646583157371,2045.3634316162386,-5741.023211601164,-7928.431979230879,29096.517455162702,-2702.124738946526,4406.333494941413,4817.315020241144,0.0,0.0,0.0,2019-03-17T21:17:34.607932,6,EyesOpen
-420.2351475042281,1975.4471749600382,-5833.291212712671,-8048.438495211422,29008.116305841962,-2838.939766757461,4312.90320311823,4691.385291979944,0.0,0.0,0.0,2019-03-17T21:17:34.613720,6,EyesOpen
-285.23061099417345,2102.1815660216294,-5708.903754818887,-7994.4366806074,29106.978071567784,-3336.131970421311,4408.389855431301,4697.420262982877,0.0,0.0,0.0,2019-03-17T21:17:34.620969,6,EyesOpen
-182.6137521998587,2195.9694857560976,-5589.031349305075,-7856.8393417405305,29217.820372321654,-3261.611254407317,4520.483853874666,4830.927232614426,0.0,0.0,0.0,2019-03-17T21:17:34.621778,6,EyesOpen
-324.6590882133351,2059.959120745554,-5717.375065967449,-7911.891688333952,29113.214208270816,-2767.280074033746,4418.582250902921,4821.561851687652,0.0,0.0,0.0,2019-03-17T21:17:34.628958,6,EyesOpen
-443.8609413934877,1963.1090120207086,-5849.92091058742,-8052.573567935654,28993.431209734823,-2775.393757271023,4297.927534333174,4689.5748006790645,0.0,0.0,0.0,2019-03-17T21:17:34.629828,6,EyesOpen
-315.5842799644804,2072.319635429339,-5742.297261035116,-8022.935154787917,29077.451417142325,-3272.6977196571497,4377.164468427238,4676.856658083994,-0.014,1.008,0.256,2019-03-17T21:17:34.635730,6,EyesOpen
-193.3872930273167,2171.4272703441707,-5613.439454250271,-7894.882010803463,29191.937052242407,-3346.257310659565,4488.677321514764,4787.587200115586,0.0,0.0,0.0,2019-03-17T21:17:34.636436,6,EyesOpen
-307.4258932382933,2083.473155912537,-5700.387740181415,-7899.262952716703,29131.989673613272,-2853.0437175087595,4430.607489419876,4823.014715077247,0.0,0.0,0.0,2019-03-17T21:17:34.643780,6,EyesOpen
-433.2215110327615,1977.257666260918,-5838.2532999817495,-8015.693189584397,29017.995776891206,-2714.3287914191237,4315.85363338633,4724.041190629147,0.0,0.0,0.0,2019-03-17T21:17:34.644536,6,EyesOpen
-343.90394018935444,2046.1680944166299,-5770.907493937909,-8018.77773031923,29065.202661180814,-3181.6367127462286,4364.491029321079,4682.869277342472,0.0,0.0,0.0,2019-03-17T21:17:34.651641,6,EyesOpen
-205.3678280553613,2167.739232509045,-5630.9855736476875,-7899.978208539273,29185.119770183537,-3385.8869535788244,4486.777423236063,4776.970121499315,0.0,0.0,0.0,2019-03-17T21:17:34.652371,6,EyesOpen
-279.1732882467852,2109.803510880889,-5686.1049754744745,-7884.3096356761025,29155.749577969265,-2942.0483639297922,4456.222588565658,4831.150750058979,0.0,0.0,0.0,2019-03-17T21:17:34.658769,6,EyesOpen
-425.7336766402336,1982.353863996728,-5831.570128389612,-8003.86911676754,29032.07737589805,-2683.3716253485236,4329.577604481889,4743.688374005363,0.0,0.0,0.0,2019-03-17T21:17:34.659407,6,EyesOpen
-379.1302894509184,2019.3460010702613,-5802.222287919794,-8042.06824804166,29048.170631905872,-3091.112147702235,4344.1956453556595,4676.990768550726,0.0,0.0,0.0,2019-03-17T21:17:34.666359,6,EyesOpen
-221.63989801882482,2156.697470748123,-5638.78633246259,-7916.89847909194,29186.662040550953,-3395.833479861436,4483.737585990141,4768.342348139567,0.0,0.0,0.0,2019-03-17T21:17:34.666997,6,EyesOpen
-247.5232180980704,2149.56726426688,-5650.900977957365,-7864.84126625553,29185.991488217296,-3023.9675073584926,4485.4810220576555,4846.931081644426,-0.01,1.008,0.256,2019-03-17T21:17:34.673411,6,EyesOpen
-416.25653699118345,2002.224564817496,-5813.398160147448,-7977.069375165627,29053.17742266386,-2668.999453663761,4352.488142548578,4768.878790006494,0.0,0.0,0.0,2019-03-17T21:17:34.674231,6,EyesOpen
-409.238089232217,1997.8883263931664,-5819.187261961372,-8037.799064850697,29038.46997481227,-2987.6235708741633,4341.021697643006,4687.518440189176,0.0,0.0,0.0,2019-03-17T21:17:34.681381,6,EyesOpen
-242.78464827354532,2137.765543194478,-5659.484047828204,-7938.825540402597,29167.55129904167,-3388.613866402372,4470.438298039234,4749.432772330377,0.0,0.0,0.0,2019-03-17T21:17:34.688395,6,EyesOpen
-233.03928769103143,2164.162953396196,-5632.550195759559,-7866.450591856313,29201.950633758384,-3120.1694154941342,4504.949391478228,4843.95829963187,0.0,0.0,0.0,2019-03-17T21:17:34.689056,6,EyesOpen
-410.02040028815276,2017.8484341917556,-5803.3845786314705,-7975.683567009398,29069.09186471604,-2693.4299103534117,4368.670805534221,4781.574580857108,0.0,0.0,0.0,2019-03-17T21:17:34.696124,6,EyesOpen
-428.97467958625316,1980.0292825733761,-5847.261052997238,-8057.222730782358,29024.343672316514,-2897.6130959526417,4317.351200264836,4683.763347120685,0.0,0.0,0.0,2019-03-17T21:17:34.696910,6,EyesOpen
-262.0742037384753,2112.9327551046317,-5695.224487212239,-7975.594160031576,29145.311313308637,-3361.300034677987,4436.038963322516,4719.5708417380865,0.0,0.0,0.0,2019-03-17T21:17:34.703966,6,EyesOpen
-210.26286009107355,2171.2708081329833,-5619.697942697757,-7872.194990181326,29217.283930454723,-3208.235288648044,4509.486795602656,4826.322773256633,0.0,0.0,0.0,2019-03-17T21:17:34.704603,6,EyesOpen
-376.0904522049966,2035.1710361446187,-5768.04647064763,-7947.319203295613,29100.94310056485,-2732.187835238914,4386.39573888728,4790.157650727946,0.0,0.0,0.0,2019-03-17T21:17:34.712049,6,EyesOpen
-452.7569356866999,1969.2110382570074,-5860.739154903788,-8061.626024440054,29013.525428000146,-2830.423752119989,4292.004322052518,4671.603998136998,-0.016,1.014,0.25,2019-03-17T21:17:34.712706,6,EyesOpen
-306.2636025266174,2087.004731536476,-5733.043638830619,-8009.904087770473,29111.895455347953,-3326.006630183057,4388.429747632712,4675.157925505391,0.0,0.0,0.0,2019-03-17T21:17:34.718599,6,EyesOpen
-196.38242678432786,2176.903447735721,-5620.0108671201315,-7887.528286877667,29214.4452589089,-3295.9211821462136,4489.996074437628,4787.140165226479,0.0,0.0,0.0,2019-03-17T21:17:34.719300,6,EyesOpen
-351.0117949261421,2059.1321062007078,-5746.588795970535,-7937.484435735279,29118.109240306527,-2804.026341918271,4393.525945368522,4784.32384542511,0.0,0.0,0.0,2019-03-17T21:17:34.726667,6,EyesOpen
-463.0163863916858,1962.840791087245,-5869.3669282635365,-8056.485123215333,29015.26886406766,-2763.5249809652546,4287.310455716903,4675.269684227667,0.0,0.0,0.0,2019-03-17T21:17:34.727307,6,EyesOpen
-344.0380506560863,2054.773516031923,-5772.7626887277,-8034.803931093685,29090.102504504026,-3256.112725271312,4364.848657232364,4658.461172397277,0.0,0.0,0.0,2019-03-17T21:17:34.734631,6,EyesOpen
-210.4640257911713,2180.2338576595616,-5630.8291114365,-7897.921848049385,29213.327671686136,-3347.8219327714364,4498.445033841734,4777.975949999804,0.0,0.0,0.0,2019-03-17T21:17:34.735526,6,EyesOpen
-312.4103322518268,2103.7238363890456,-5720.258441002184,-7907.913077820907,29150.67573197791,-2862.923188558005,4440.375201746846,4813.291706239189,0.0,0.0,0.0,2019-03-17T21:17:34.740896,6,EyesOpen
-459.08247936755174,1980.2975035068398,-5878.844067912587,-8043.766980620263,29014.665366967365,-2708.8973175164842,4301.593220423844,4701.60003919602,0.0,0.0,0.0,2019-03-17T21:17:34.747955,6,EyesOpen
-361.338300864494,2074.711272086057,-5795.159136671918,-8032.2334804813245,29078.725466576278,-3148.7349449080166,4360.579474041399,4673.325082460056,0.0,0.0,0.0,2019-03-17T21:17:34.748822,6,EyesOpen
-220.63406951833602,2198.763453813011,-5634.584204504991,-7904.448557430334,29212.813581563663,-3376.7003866076934,4493.505298317111,4769.728156295795,-0.016,1.012,0.252,2019-03-17T21:17:34.756133,6,EyesOpen
-292.4502244532376,2137.3632117942825,-5686.216734196751,-7887.997673511229,29182.884595738007,-2956.9122739925715,4463.442202024723,4821.807720876661,0.0,0.0,0.0,2019-03-17T21:17:34.756779,6,EyesOpen
-452.93574964234233,1998.2012508155408,-5854.704183900855,-8015.849651795585,29042.426233580856,-2685.4950410717775,4319.653429943733,4722.185995839357,0.0,0.0,0.0,2019-03-17T21:17:34.764164,6,EyesOpen
-410.5791938995354,2017.9825446584875,-5838.074486026107,-8059.033222083238,29048.5059080727,-3081.210324908534,4325.800159668942,4647.508817614176,0.0,0.0,0.0,2019-03-17T21:17:34.764870,6,EyesOpen
-245.10922969689724,2169.5273720654695,-5675.510248602659,-7940.345459025558,29187.958441729363,-3411.032666091045,4469.812449194485,4732.4901500332535,0.0,0.0,0.0,2019-03-17T21:17:34.770932,6,EyesOpen
-265.4493171512267,2170.1308691657628,-5670.771678778134,-7877.045318728128,29208.343232672603,-3051.147228616146,4492.946504705728,4823.595860433085,0.0,0.0,0.0,2019-03-17T21:17:34.771632,6,EyesOpen
-436.79779014561063,2025.0456959063645,-5846.903425085953,-8000.069320210138,29063.414521624392,-2682.8351834815962,4344.3744593113015,4737.429885557876,0.0,0.0,0.0,2019-03-17T21:17:34.778758,6,EyesOpen
-424.83960686202136,2023.3022598388507,-5868.5399137186905,-8069.717355932875,29038.805250979098,-2982.0356347603365,4306.197679781638,4641.295032655601,0.0,0.0,0.0,2019-03-17T21:17:34.779408,6,EyesOpen
-251.56888384448098,2169.482668576559,-5702.622914626946,-7960.462029035334,29173.139235155493,-3394.7158926386705,4438.788227890519,4703.701103174818,0.0,0.0,0.0,2019-03-17T21:17:34.787011,6,EyesOpen
-220.81288347397847,2204.7090178381227,-5644.038992409586,-7861.689670287332,29232.192544006415,-3130.04888654338,4505.239964156147,4819.661953408951,0.0,0.0,0.0,2019-03-17T21:17:34.787647,6,EyesOpen
-390.9767140122311,2065.189428948096,-5802.535212342169,-7956.639880733476,29108.14036227946,-2679.840049724585,4379.667863806232,4769.549342340153,-0.02,1.008,0.248,2019-03-17T21:17:34.794132,6,EyesOpen
-424.54903418410237,2036.579196045303,-5867.802306151665,-8055.233425525836,29043.879096970453,-2874.411985208033,4310.600973439333,4657.4106404078775,0.0,0.0,0.0,2019-03-17T21:17:34.794791,6,EyesOpen
-265.24815145112893,2168.2533226315168,-5720.593717169013,-7981.852648479063,29159.10233963756,-3349.677127561227,4426.762989373564,4687.183164022346,0.0,0.0,0.0,2019-03-17T21:17:34.800548,6,EyesOpen
-225.10441840939743,2195.9024305227317,-5654.901940214866,-7889.629350856466,29222.60364563509,-3234.275070938477,4495.919286718284,4786.938999526382,0.0,0.0,0.0,2019-03-17T21:17:34.808380,6,EyesOpen
-379.06323421755246,2054.6841090541016,-5790.979360458775,-7951.230758575292,29119.60680718503,-2745.0400883007155,4390.642570333787,4771.270426663212,0.0,0.0,0.0,2019-03-17T21:17:34.809050,6,EyesOpen
-462.97168290277517,1979.3363784952617,-5883.850858670576,-8061.715431417875,29033.440832309825,-2809.1001879096257,4298.978066322573,4659.578759620043,0.0,0.0,0.0,2019-03-17T21:17:34.816535,6,EyesOpen
-328.6824022152904,2099.186432264618,-5761.4750577777695,-8017.235459951814,29126.960531110828,-3310.494519531074,4388.4520993771675,4658.617634608464,0.0,0.0,0.0,2019-03-17T21:17:34.817414,6,EyesOpen
-223.1598166417857,2208.1064829953293,-5638.048724895564,-7885.293112432136,29236.998169064307,-3306.0912258733783,4498.869716986384,4777.417156388421,0.0,0.0,0.0,2019-03-17T21:17:34.823569,6,EyesOpen
-348.1731233803181,2113.7821213939337,-5745.650022703412,-7915.602077913532,29157.649476247967,-2800.0253796607713,4422.650268393787,4791.56581062863,0.0,0.0,0.0,2019-03-17T21:17:34.824230,6,EyesOpen
-459.3059968121048,1994.423806002594,-5878.151163834473,-8044.862216098573,29039.69932075731,-2740.4132771984673,4303.247249513537,4676.297864472612,0.0,0.0,0.0,2019-03-17T21:17:34.833057,6,EyesOpen
-330.0235068826088,2086.9823797920203,-5778.28356960816,-8024.097445499593,29115.4717344608,-3221.6016318323177,4375.979825971106,4656.047183996104,-0.018000000000000002,1.01,0.252,2019-03-17T21:17:34.833534,6,EyesOpen
-203.2220605876518,2228.603032660846,-5627.54340500157,-7888.444708400334,29247.21291628038,-3341.8316652574144,4507.877470001873,4773.617359831019,0.0,0.0,0.0,2019-03-17T21:17:34.839689,6,EyesOpen
-314.04200959706424,2153.3223573353716,-5716.995086311708,-7900.760519595208,29184.248052149782,-2875.708386386441,4448.198312306204,4800.61826713303,0.0,0.0,0.0,2019-03-17T21:17:34.840564,6,EyesOpen
-455.86382816598757,2016.35086731325,-5865.4330212394025,-8025.259736211269,29058.13950993294,-2684.489212571289,4322.648563700744,4699.297809517123,0.0,0.0,0.0,2019-03-17T21:17:34.847059,6,EyesOpen
-380.3149319070497,2060.8755422682216,-5806.916154255409,-8040.011887551772,29097.031545285172,-3127.3219737198324,4358.1654856402265,4649.743992059707,0.0,0.0,0.0,2019-03-17T21:17:34.847885,6,EyesOpen
-236.83908424843364,2194.404863644226,-5654.186684392296,-7920.832386116074,29225.26350322527,-3382.8247645884476,4482.93292318975,4738.055734402626,0.0,0.0,0.0,2019-03-17T21:17:34.853745,6,EyesOpen
-298.4628437117152,2148.606139255302,-5692.989312766709,-7894.569086381089,29208.320880928146,-2968.8034020427945,4465.207989836692,4800.685322366396,0.0,0.0,0.0,2019-03-17T21:17:34.854331,6,EyesOpen
-431.5004267097028,2023.7492947279568,-5838.610927893034,-8000.784576032708,29089.029620770172,-2652.2132935778254,4344.486218033579,4726.902213919427,0.0,0.0,0.0,2019-03-17T21:17:34.860786,6,EyesOpen
-396.788167570611,2043.9105682266438,-5828.306773699138,-8053.802913880696,29078.74781832073,-3030.2036440615234,4337.9148051637185,4643.664317567864,0.0,0.0,0.0,2019-03-17T21:17:34.868663,6,EyesOpen
-243.9469389852213,2196.6176863453015,-5667.530675832114,-7944.3017177941465,29205.862189038064,-3387.8539070908914,4471.779402706552,4717.179205081368,0.0,0.0,0.0,2019-03-17T21:17:34.869320,6,EyesOpen
-257.2909304250396,2218.1424162557623,-5646.028297666108,-7865.310652889091,29237.333445231136,-3045.626347735685,4509.151519435825,4821.159520287457,-0.014,1.01,0.25,2019-03-17T21:17:34.875900,6,EyesOpen
-430.20402553129503,2034.746352999968,-5820.6401253509675,-7978.656349021954,29098.640870885956,-2655.163723845926,4368.156715411748,4746.817618229105,0.0,0.0,0.0,2019-03-17T21:17:34.876531,6,EyesOpen
-441.58106345904633,2012.0146288889205,-5859.375698492015,-8064.665861685975,29057.267791899183,-2940.953128451482,4318.491139232056,4640.199797177291,0.0,0.0,0.0,2019-03-17T21:17:34.883392,6,EyesOpen
-278.30157021302824,2151.221293356573,-5694.375120922938,-7965.9605581713395,29193.43461912091,-3369.994863271101,4454.680318198242,4701.60003919602,0.0,0.0,0.0,2019-03-17T21:17:34.884248,6,EyesOpen
-251.81475303348938,2180.3903198707485,-5645.35774533245,-7878.051147228617,29247.391730236024,-3153.3841077547204,4511.498452603633,4804.753339857261,0.0,0.0,0.0,2019-03-17T21:17:34.891340,6,EyesOpen
-409.9086415658762,2037.5850245457918,-5806.357360644026,-7967.413421560935,29124.121859565006,-2700.805986023663,4384.093509208383,4758.03819394567,0.0,0.0,0.0,2019-03-17T21:17:34.891976,6,EyesOpen
-444.82206640506587,2003.811538673823,-5865.880056128509,-8055.658108670486,29068.443664126837,-2851.61320586362,4323.833206156874,4658.170599719358,0.0,0.0,0.0,2019-03-17T21:17:34.899288,6,EyesOpen
-287.4881371841594,2140.3359938068384,-5718.112673534474,-7983.417270590934,29183.801017260674,-3331.929842463713,4435.726038900142,4680.947027319316,0.0,0.0,0.0,2019-03-17T21:17:34.900317,6,EyesOpen
-211.87218569185563,2221.6516401352455,-5620.212032820229,-7864.9977284667175,29274.817320682687,-3232.5763383598733,4527.524653378088,4796.214973475334,0.0,0.0,0.0,2019-03-17T21:17:34.906042,6,EyesOpen
-374.3917196263933,2088.7928710929004,-5765.2301508462615,-7936.031572345683,29155.86133669154,-2748.728126135841,4409.842718820896,4769.839915018072,0.0,0.0,0.0,2019-03-17T21:17:34.906777,6,EyesOpen
-459.5742177455685,2003.029227617887,-5868.003471851764,-8054.719335403363,29058.295972144126,-2786.9719608988717,4309.2151652831035,4650.392192648911,-0.018000000000000002,1.008,0.256,2019-03-17T21:17:34.914024,6,EyesOpen
-310.4880822286704,2122.0075633534866,-5737.84926388851,-8002.416253377945,29163.57268852862,-3269.6131789223173,4419.610431147866,4660.986919520727,0.0,0.0,0.0,2019-03-17T21:17:34.914918,6,EyesOpen
-200.42809253073844,2224.6244221478014,-5611.673666438302,-7877.134725705949,29276.784274194753,-3298.0222461250123,4533.403162169834,4778.043005233169,0.0,0.0,0.0,2019-03-17T21:17:34.921178,6,EyesOpen
-336.52786451910316,2120.9793831085426,-5723.119464292463,-7913.657476145921,29192.741715042797,-2810.3965890880336,4447.63951869482,4788.95065652736,0.0,0.0,0.0,2019-03-17T21:17:34.921924,6,EyesOpen
-450.0970780965183,1999.5423554828592,-5869.97042536383,-8048.505550444788,29066.78963503714,-2722.375419423034,4320.592203210856,4670.888742314428,0.0,0.0,0.0,2019-03-17T21:17:34.929427,6,EyesOpen
-354.789239739089,2087.250600725484,-5787.134860412462,-8040.838902096618,29131.14030732397,-3199.2945908659212,4378.2373521610925,4639.05985821007,0.0,0.0,0.0,2019-03-17T21:17:34.935544,6,EyesOpen
-243.20933141819614,2198.9199160241983,-5642.6084807644465,-7914.350380224036,29253.82903263915,-3358.394307898797,4502.89303098834,4741.967289682304,0.0,0.0,0.0,2019-03-17T21:17:34.936206,6,EyesOpen
-332.23632958368415,2120.577051708347,-5707.674408873846,-7904.672074874888,29212.59006411911,-2892.3604360056447,4465.1185828588705,4791.029368761703,0.0,0.0,0.0,2019-03-17T21:17:34.943663,6,EyesOpen
-473.27583709667175,1984.901962864633,-5866.595311951079,-8035.4968351718,29079.75364682122,-2677.426061323412,4328.1694445812045,4686.624370410964,0.0,0.0,0.0,2019-03-17T21:17:34.944321,6,EyesOpen
-398.7327693382227,2040.8483792362667,-5806.737340299766,-8054.808742381185,29116.745783894752,-3101.461005385042,4362.233503131092,4634.991840719204,0.0,0.0,0.0,2019-03-17T21:17:34.951583,6,EyesOpen
-242.0246889620649,2194.9189537666985,-5640.015678407631,-7928.364923997513,29254.968971606373,-3373.414680172763,4501.596629809932,4728.600946498031,-0.016,1.008,0.25,2019-03-17T21:17:34.952221,6,EyesOpen
-282.83897433745557,2169.6167790432905,-5659.327585617017,-7880.778060052164,29251.705616915897,-2968.6916433205183,4500.2778768870685,4806.876755580515,0.0,0.0,0.0,2019-03-17T21:17:34.958750,6,EyesOpen
-458.41192703389254,2011.902870166644,-5825.57986087559,-8003.019750478238,29113.549484437644,-2650.1122295990267,4359.2830728629915,4718.855585915517,0.0,0.0,0.0,2019-03-17T21:17:34.959449,6,EyesOpen
-444.5761972160575,2007.2090038310296,-5825.803378320144,-8061.201341295403,29102.842998843553,-3001.1910797585347,4344.3744593113015,4631.929651728828,0.0,0.0,0.0,2019-03-17T21:17:34.966321,6,EyesOpen
-283.308360971017,2163.537104551447,-5672.358652634461,-7958.293909823169,29231.365529461567,-3382.4671366771627,4474.796888208019,4694.849812370517,0.0,0.0,0.0,2019-03-17T21:17:34.967277,6,EyesOpen
-281.6766836257796,2180.837354759855,-5652.443248324782,-7885.18135370986,29259.41696875298,-3074.102470171746,4504.0329699555605,4789.978836772303,0.0,0.0,0.0,2019-03-17T21:17:34.974340,6,EyesOpen
-436.0154790896749,2032.1535506431521,-5808.279610667183,-7976.644692020976,29133.062557347126,-2651.1851133328814,4376.091584693383,4737.385182068966,0.0,0.0,0.0,2019-03-17T21:17:34.974991,6,EyesOpen
-438.83179889104355,2014.6744864791021,-5846.970480319319,-8056.105143559593,29088.023792269683,-2897.546040719276,4331.075171360394,4639.73041054373,0.0,0.0,0.0,2019-03-17T21:17:34.982402,6,EyesOpen
-272.6242271213802,2149.231988100051,-5699.404263425382,-7973.090764652582,29206.10805822707,-3348.6712990607384,4452.556902474988,4679.136536018435,0.0,0.0,0.0,2019-03-17T21:17:34.983043,6,EyesOpen
-229.32889811145046,2194.8742502777877,-5632.952527159754,-7869.982167480251,29272.962125892893,-3146.7009361625837,4521.243813186146,4791.342293184077,0.0,0.0,0.0,2019-03-17T21:17:34.988702,6,EyesOpen
-392.18370821281775,2073.258408696462,-5780.585799287057,-7945.084028850082,29163.282115850703,-2670.1393926309815,4408.166337986749,4760.206313157834,-0.018000000000000002,1.012,0.244,2019-03-17T21:17:34.995900,6,EyesOpen
-443.65977569338986,2042.256539136951,-5852.536064688691,-8046.382134721534,29088.98491728126,-2803.0428651622374,4331.8127789274195,4647.5535211030865,0.0,0.0,0.0,2019-03-17T21:17:34.996575,6,EyesOpen
-289.8797738408773,2194.114290966307,-5714.804615355089,-7986.2112386478475,29190.640651063997,-3290.22148731011,4434.429637721734,4661.478657898743,0.0,0.0,0.0,2019-03-17T21:17:35.004037,6,EyesOpen
-206.3289530669395,2242.952852601153,-5607.628000691891,-7858.940405719329,29295.336222092657,-3213.5997073173176,4537.627641871887,4786.871944293016,0.0,0.0,0.0,2019-03-17T21:17:35.004693,6,EyesOpen
-369.3402253794939,2091.989170550009,-5741.649060445912,-7920.608868671521,29196.563863344654,-2721.704867089375,4440.30814651348,4776.813659288127,0.0,0.0,0.0,2019-03-17T21:17:35.012484,6,EyesOpen
-462.3458340580266,2013.1098643672306,-5855.39708797897,-8045.845692854607,29094.75166735073,-2729.572681137643,4336.685459218676,4659.511704386676,0.0,0.0,0.0,2019-03-17T21:17:35.013178,6,EyesOpen
-354.99040543918676,2100.706350887579,-5758.681089720856,-8029.0595327686715,29165.137310640494,-3239.3265651853762,4404.165375729248,4630.052105194582,0.0,0.0,0.0,2019-03-17T21:17:35.018772,6,EyesOpen
-223.47274106416,2210.498119652047,-5620.279088053595,-7898.905324805418,29285.36734406559,-3295.4741472571072,4527.524653378088,4747.555225796131,0.0,0.0,0.0,2019-03-17T21:17:35.019415,6,EyesOpen
-342.92046343332095,2112.8880516157215,-5711.809481598078,-7920.251240760236,29220.189657233914,-2800.092434894137,4465.4091555367895,4774.824354031605,0.0,0.0,0.0,2019-03-17T21:17:35.026618,6,EyesOpen
-469.6995579838226,2000.6375909611693,-5847.976308819808,-8048.840826611618,29102.507722676724,-2679.2365526242916,4342.452209288145,4664.004405022193,0.0,0.0,0.0,2019-03-17T21:17:35.027289,6,EyesOpen
-372.96120798125366,2081.8191268228443,-5774.930807939864,-8051.746553390808,29156.978923914307,-3155.440468244609,4386.328683653914,4620.1949858897915,-0.018000000000000002,1.012,0.246,2019-03-17T21:17:35.034656,6,EyesOpen
-227.07137192146445,2210.9675062856086,-5623.900070655354,-7923.738112895265,29289.36830632309,-3340.2670431455426,4520.260336430113,4726.119902863491,0.0,0.0,0.0,2019-03-17T21:17:35.035302,6,EyesOpen
-317.3947712653603,2144.7169357200787,-5688.965998764754,-7915.646781402444,29247.190564535926,-2894.3944447510776,4481.547115033522,4773.997339486759,0.0,0.0,0.0,2019-03-17T21:17:35.041315,6,EyesOpen
-453.29337755362724,2024.3751435727054,-5833.157102245939,-8032.166425247959,29120.746746152254,-2640.948014372351,4357.8749129623075,4687.339626233534,0.0,0.0,0.0,2019-03-17T21:17:35.042064,6,EyesOpen
-388.5850773555133,2053.097135197775,-5796.187316916861,-8065.559931464188,29138.851659161053,-3054.8352664512718,4372.291788135981,4621.089055668003,0.0,0.0,0.0,2019-03-17T21:17:35.048151,6,EyesOpen
-225.0597149204868,2193.287276421461,-5638.920442929321,-7947.833293418085,29267.329486290157,-3358.036679987512,4499.316751875491,4702.829385141062,0.0,0.0,0.0,2019-03-17T21:17:35.056077,6,EyesOpen
-239.07425869396434,2193.823718288388,-5632.505492270648,-7879.526362362667,29289.86004470111,-2959.080393204736,4520.75207480813,4801.244115977778,0.0,0.0,0.0,2019-03-17T21:17:35.056724,6,EyesOpen
-411.8755950779432,2039.5072745689483,-5810.380674645981,-8010.127605215026,29142.517345251723,-2622.686639152365,4372.336491624891,4707.523251476676,0.0,0.0,0.0,2019-03-17T21:17:35.064161,6,EyesOpen
-397.36931292644897,2048.5597310733474,-5819.030799750185,-8076.177010080459,29121.19378104136,-2959.2815589048337,4347.660165746232,4615.612878276454,0.0,0.0,0.0,2019-03-17T21:17:35.064807,6,EyesOpen
-233.12869466885266,2184.14541293924,-5654.298443114572,-7967.324014583113,29254.946619861916,-3353.7898485410037,4477.41204230929,4682.2434284977235,0.0,0.0,0.0,2019-03-17T21:17:35.072125,6,EyesOpen
-233.5980813024141,2215.728427854589,-5628.146902101863,-7887.9529700223175,29287.669573744486,-3070.213266636523,4511.409045625812,4778.646502333463,-0.012,1.014,0.244,2019-03-17T21:17:35.072768,6,EyesOpen
-392.16135646836244,2077.214667465051,-5781.971607443286,-7977.471706565822,29162.991543172782,-2635.740057914264,4388.608561588355,4728.153911608924,0.0,0.0,0.0,2019-03-17T21:17:35.078975,6,EyesOpen
-418.60347015899066,2017.3790475581943,-5832.665363867923,-8067.459829742888,29112.118972792505,-2867.1476682600583,4335.0984853623495,4621.558442301565,0.0,0.0,0.0,2019-03-17T21:17:35.079923,6,EyesOpen
-249.13254369885252,2163.514752806992,-5675.331434647016,-7977.985796688295,29242.183773777935,-3321.1115981473445,4462.525780502055,4665.2784544561455,0.0,0.0,0.0,2019-03-17T21:17:35.086669,6,EyesOpen
-189.74395868110165,2232.827512362899,-5600.140166299363,-7869.490429102234,29317.57620782569,-3145.046907072891,4540.667479117808,4780.3899384009765,0.0,0.0,0.0,2019-03-17T21:17:35.087558,6,EyesOpen
-355.079812417008,2092.570315905847,-5752.020269873175,-7950.76137194173,29197.748505800788,-2667.948921674362,4420.482149181623,4746.370583339999,0.0,0.0,0.0,2019-03-17T21:17:35.094311,6,EyesOpen
-417.97762131424207,2022.1399691271747,-5834.3193929576155,-8056.440419726422,29120.81380138562,-2768.4423647454223,4344.24034884457,4637.294070398101,0.0,0.0,0.0,2019-03-17T21:17:35.094947,6,EyesOpen
-264.95757877320995,2157.6585957597013,-5689.323626676039,-7991.732119528308,29233.824221351653,-3253.721088614594,4459.351832789402,4658.63998635292,0.0,0.0,0.0,2019-03-17T21:17:35.101273,6,EyesOpen
-188.84988890288938,2239.957718844142,-5584.136317269364,-7881.917999019385,29324.773469540298,-3223.099198710823,4552.2233310012025,4767.202409172346,0.0,0.0,0.0,2019-03-17T21:17:35.101751,6,EyesOpen
-331.9681086502205,2115.771426650456,-5708.948458307798,-7931.963554854818,29232.863096340072,-2729.930309048928,4458.860094411385,4766.196580671857,0.0,0.0,0.0,2019-03-17T21:17:35.108177,6,EyesOpen
-442.34102277052676,2004.772663685401,-5835.079352269096,-8059.748477905808,29124.635949687476,-2712.96533500735,4338.942985408662,4645.832436780029,-0.008,1.01,0.248,2019-03-17T21:17:35.116153,6,EyesOpen
-314.73491367517875,2108.5294614469362,-5723.3206299925605,-8028.321925201646,29209.617282106556,-3200.4121780886867,4418.1575677582705,4632.53314882912,0.0,0.0,0.0,2019-03-17T21:17:35.116477,6,EyesOpen
-183.08313883342015,2226.6584308932343,-5587.310264982017,-7904.605019641522,29323.70058580644,-3289.595638465362,4532.464388902711,4739.195673369846,0.0,0.0,0.0,2019-03-17T21:17:35.122785,6,EyesOpen
-289.5892011629583,2146.1027438763076,-5679.019472482142,-7916.809072114119,29262.099178087614,-2802.3946645730334,4469.276007327558,4769.035252217681,0.0,0.0,0.0,2019-03-17T21:17:35.123310,6,EyesOpen
-430.8522261204989,2031.3935913316718,-5822.4059131629365,-8039.251928240291,29142.71851095182,-2647.5864824755768,4345.402639556246,4666.060765512081,0.0,0.0,0.0,2019-03-17T21:17:35.131081,6,EyesOpen
-355.7727164951225,2098.7841008644227,-5760.916264166387,-8055.747515648308,29180.87293873703,-3119.1188835047346,4379.421994617223,4612.4389305638,0.0,0.0,0.0,2019-03-17T21:17:35.131728,6,EyesOpen
-211.8051304584897,2216.8236633328993,-5607.49389022516,-7932.388237999468,29304.768658252797,-3335.126141920822,4510.403217125323,4711.390103267444,0.0,0.0,0.0,2019-03-17T21:17:35.139195,6,EyesOpen
-260.95661651571,2179.920933237187,-5628.437474779782,-7882.834420542053,29300.968861695394,-2873.450860196455,4507.519842090588,4797.287857209189,0.0,0.0,0.0,2019-03-17T21:17:35.140024,6,EyesOpen
-420.70453413778955,2033.8746349662108,-5794.220363404795,-8010.3958261484895,29164.958496684852,-2609.364999457002,4368.670805534221,4703.321123519078,0.0,0.0,0.0,2019-03-17T21:17:35.146091,6,EyesOpen
-366.34509162248276,2066.843458037789,-5772.494467794236,-8048.818474867163,29172.334572355103,-3006.242574005434,4375.555142826455,4635.125951185936,0.0,0.0,0.0,2019-03-17T21:17:35.146962,6,EyesOpen
-191.86737440435581,2221.3834192017816,-5612.120701327408,-7926.152101296438,29308.009661198816,-3325.090208660389,4512.884260759862,4723.996487140237,-0.008,1.016,0.24,2019-03-17T21:17:35.153769,6,EyesOpen
-219.42707531774943,2200.059854991419,-5613.797082161556,-7866.607054067499,29320.303120649234,-2963.438983373521,4527.077618488982,4812.2858777387,0.0,0.0,0.0,2019-03-17T21:17:35.154414,6,EyesOpen
-390.9767140122311,2069.548019116881,-5769.320520081583,-7967.413421560935,29196.362697644556,-2587.9296765243625,4399.247991949081,4745.096533906047,0.0,0.0,0.0,2019-03-17T21:17:35.161795,6,EyesOpen
-396.8775745484322,2062.7977922913783,-5796.723758783789,-8044.549291676199,29164.332647840103,-2907.2019943239684,4363.14992465376,4642.166750689358,0.0,0.0,0.0,2019-03-17T21:17:35.162482,6,EyesOpen
-225.97613644315442,2202.5185468815025,-5632.729009715201,-7936.880938634985,29300.186550639457,-3317.1329876342998,4496.478080329666,4704.014027597193,0.0,0.0,0.0,2019-03-17T21:17:35.168716,6,EyesOpen
-208.07238913445346,2225.451436692648,-5588.763128371612,-7844.948213690307,29345.33707443918,-3054.432935051076,4543.349688452446,4810.140110270991,0.0,0.0,0.0,2019-03-17T21:17:35.169419,6,EyesOpen
-375.88928650489885,2083.897839057188,-5755.887121663943,-7941.999488115251,29212.902988541486,-2616.785778616164,4408.8815938093185,4754.685432277373,0.0,0.0,0.0,2019-03-17T21:17:35.175954,6,EyesOpen
-417.6870486363231,2038.9037774686549,-5827.01037252073,-8047.87970160004,29147.747653454266,-2827.763894529807,4339.077095875394,4638.881044254428,0.0,0.0,0.0,2019-03-17T21:17:35.183229,6,EyesOpen
-252.39589838932736,2169.996758699031,-5688.831888298022,-7978.499886810767,29260.311038531192,-3302.93962990518,4454.16622807577,4668.16182949088,0.0,0.0,0.0,2019-03-17T21:17:35.184208,6,EyesOpen
-184.89363013430003,2227.8207216049104,-5597.614419175914,-7864.08130694405,29346.18644072848,-3155.239302544511,4544.4225721863,4791.3646449285325,0.0,0.0,0.0,2019-03-17T21:17:35.191422,6,EyesOpen
-358.3431671074828,2104.662609656168,-5742.766647668677,-7937.864415391018,29235.612360908075,-2669.4911920417776,4436.731867400631,4768.387051628477,-0.012,1.01,0.252,2019-03-17T21:17:35.192065,6,EyesOpen
-431.5004267097028,2025.3139168398282,-5834.744076102266,-8049.779599878741,29152.48622327879,-2741.3967539545006,4348.554235524444,4657.008309007681,0.0,0.0,0.0,2019-03-17T21:17:35.199297,6,EyesOpen
-294.50658494312586,2135.239796071028,-5702.757025093678,-7998.370587631534,29253.89608787252,-3238.5666058738957,4444.532626215533,4663.4009079218995,0.0,0.0,0.0,2019-03-17T21:17:35.199999,6,EyesOpen
-193.81197617196753,2236.493198453569,-5589.858363849922,-7877.872333272974,29354.99302804387,-3230.9223092701804,4544.735496608674,4777.484211621787,0.0,0.0,0.0,2019-03-17T21:17:35.206028,6,EyesOpen
-314.9584311197318,2140.9171391626764,-5697.124385490941,-7909.835327844064,29278.93004166246,-2726.644602613998,4466.124411359359,4793.912743796438,0.0,0.0,0.0,2019-03-17T21:17:35.206934,6,EyesOpen
-423.34203998351575,2026.677373251602,-5828.82086382161,-8040.056591040682,29161.53867978319,-2679.124793902015,4344.933252922685,4674.643835382919,0.0,0.0,0.0,2019-03-17T21:17:35.215437,6,EyesOpen
-299.26750651210625,2140.47010427357,-5722.828891614544,-8009.524108114733,29240.06035805468,-3157.5191804789524,4423.790207361008,4660.852809053995,0.0,0.0,0.0,2019-03-17T21:17:35.216087,6,EyesOpen
-168.39804272628342,2263.11412609984,-5587.600837659936,-7885.382519409957,29355.79769084426,-3279.939684860669,4545.13782800887,4767.3588713835325,0.0,0.0,0.0,2019-03-17T21:17:35.222138,6,EyesOpen
-264.10821248390823,2182.513735594003,-5663.172085663329,-7887.572990366578,29306.065059431203,-2799.4665860493883,4490.756033749108,4809.335447470599,0.0,0.0,0.0,2019-03-17T21:17:35.222778,6,EyesOpen
-432.5733104435576,2043.2847193818952,-5819.433131150381,-8021.214070464858,29173.07217992213,-2631.1132468120154,4347.771924468509,4695.296847259623,0.0,0.0,0.0,2019-03-17T21:17:35.228840,6,EyesOpen
-373.4305946148151,2064.4965248699814,-5779.647026019934,-8051.612442924076,29193.30050865418,-3097.6165053387294,4365.250988632559,4626.073494681536,0.0,0.0,0.0,2019-03-17T21:17:35.229505,6,EyesOpen
-205.21136584417414,2215.013172032019,-5613.193585061263,-7913.523365679189,29334.831754545183,-3327.4371418281967,4509.911478747306,4735.3064698346225,-0.016,1.008,0.246,2019-03-17T21:17:35.235843,6,EyesOpen
-253.5134856120927,2186.8052705294217,-5643.189626120285,-7874.228998926759,29326.315739907714,-2896.339046518689,4503.60828681091,4813.3140579836445,0.0,0.0,0.0,2019-03-17T21:17:35.245155,6,EyesOpen
-390.73084482322275,2068.0728039828305,-5792.253409892727,-7980.623302534021,29208.49969488379,-2587.594400357533,4384.24997141957,4739.173321625391,0.0,0.0,0.0,2019-03-17T21:17:35.245991,6,EyesOpen
-361.338300864494,2082.9590657900653,-5797.461366350814,-8045.108085287582,29195.803904033175,-2979.5098876368866,4364.714546765631,4647.866445525461,0.0,0.0,0.0,2019-03-17T21:17:35.253266,6,EyesOpen
-198.50584250758203,2231.5311111844912,-5633.5113207711365,-7924.654534417932,29336.061100490228,-3320.776321980515,4503.407121110812,4733.361868067011,0.0,0.0,0.0,2019-03-17T21:17:35.253908,6,EyesOpen
-218.28713635052878,2224.0656285364184,-5630.87381492541,-7864.438934855335,29351.48380416439,-2984.82960281725,4523.143711464848,4820.868947609538,0.0,0.0,0.0,2019-03-17T21:17:35.259398,6,EyesOpen
-397.5034233931808,2076.8570395537663,-5800.478851852281,-7971.973177429817,29219.11677350006,-2595.3057521946134,4387.5133261100445,4753.545493310153,0.0,0.0,0.0,2019-03-17T21:17:35.260082,6,EyesOpen
-402.2866967066165,2059.445030623082,-5829.714933599822,-8048.013812066772,29182.48226433781,-2884.537325446287,4347.14607562376,4655.175465962347,0.0,0.0,0.0,2019-03-17T21:17:35.266202,6,EyesOpen
-232.36873535737223,2194.0695874773965,-5670.928140989321,-7952.102476609049,29312.882341490073,-3313.064970143434,4476.115641130882,4711.144234078435,0.0,0.0,0.0,2019-03-17T21:17:35.266854,6,EyesOpen
-224.45621782019353,2215.6837243656787,-5620.390846775871,-7863.388402865935,29366.4818246939,-3084.808955765838,4529.715124334708,4813.537575428197,0.0,0.0,0.0,2019-03-17T21:17:35.274208,6,EyesOpen
-388.272152933139,2073.0795947408196,-5771.198066615828,-7957.869226678518,29246.095329057614,-2631.5379299566666,4406.44525366369,4766.017766716214,-0.012,1.004,0.248,2019-03-17T21:17:35.274939,6,EyesOpen
-437.13306631244023,2006.8737276642,-5850.814980365632,-8073.785373423741,29171.842833977087,-2813.905812967517,4325.241366057559,4644.670146068353,0.0,0.0,0.0,2019-03-17T21:17:35.281332,6,EyesOpen
-277.67572136827965,2144.6275287422573,-5707.160318751374,-8001.902163255473,29286.350820821623,-3288.36629252032,4438.4082482347785,4672.989806293226,0.0,0.0,0.0,2019-03-17T21:17:35.281889,6,EyesOpen
-205.4572350331825,2229.050067549952,-5617.418064763316,-7886.611865354999,29370.281621251303,-3172.651311475195,4527.748170822641,4792.795156573672,0.0,0.0,0.0,2019-03-17T21:17:35.288898,6,EyesOpen
-348.6648617583349,2116.7772551509447,-5743.146627324418,-7941.0160113592165,29274.21382358239,-2671.972235676317,4435.815445877963,4788.168345471424,0.0,0.0,0.0,2019-03-17T21:17:35.289600,6,EyesOpen
-426.15835978488445,2038.9484809575656,-5832.687715612378,-8049.667841156464,29191.668831308943,-2716.0275239977273,4350.722354736609,4682.310483731089,0.0,0.0,0.0,2019-03-17T21:17:35.295977,6,EyesOpen
-302.1732332912962,2124.3992000102044,-5725.756970138189,-8020.230593708825,29272.045704370226,-3226.5637191013957,4426.941803329206,4665.501971900699,0.0,0.0,0.0,2019-03-17T21:17:35.303838,6,EyesOpen
-196.8071099289787,2224.244442492061,-5603.180003545285,-7894.32321719208,29379.155263800058,-3241.6287948642725,4536.688868604764,4781.552229112653,0.0,0.0,0.0,2019-03-17T21:17:35.304668,6,EyesOpen
-313.952602619243,2130.8141506688776,-5706.3556559509825,-7918.910136092918,29305.439210586457,-2740.0556492871824,4462.056393868494,4801.6911508668845,0.0,0.0,0.0,2019-03-17T21:17:35.311082,6,EyesOpen
-434.45085697780337,2024.4198470616159,-5842.6565936394445,-8046.78446612173,29190.126560941528,-2661.4669157823228,4340.686421476176,4687.518440189176,0.0,0.0,0.0,2019-03-17T21:17:35.312060,6,EyesOpen
-315.2043003087402,2115.257336527984,-5750.366240783482,-8031.2947072142015,29254.41017799499,-3138.296680247388,4402.041960005994,4661.21043696528,-0.01,1.008,0.244,2019-03-17T21:17:35.318554,6,EyesOpen
-168.01806307054318,2253.413469006237,-5600.2295732771845,-7896.424281170879,29382.999763846372,-3279.6267604382947,4531.056229002026,4773.907932508938,0.0,0.0,0.0,2019-03-17T21:17:35.319356,6,EyesOpen
-265.5163723845926,2196.058892733919,-5664.982576964209,-7887.79650781113,29340.889077292573,-2807.4685105643885,4488.722025003675,4824.579337189119,0.0,0.0,0.0,2019-03-17T21:17:35.326522,6,EyesOpen
-433.04269707711904,2040.7142687695348,-5829.357305688537,-8021.415236164956,29202.621186092045,-2607.778025600675,4345.715563978621,4712.954725379315,0.0,0.0,0.0,2019-03-17T21:17:35.327454,6,EyesOpen
-365.7639462666448,2071.425565651127,-5785.503183067225,-8047.387963222023,29229.890314327517,-3047.1909698475565,4370.481296835101,4652.314442672067,0.0,0.0,0.0,2019-03-17T21:17:35.334670,6,EyesOpen
-212.6768484922467,2208.9334975401757,-5630.11385561393,-7929.929546109384,29362.39145545858,-3320.642211513783,4504.278839144568,4740.6485367594405,0.0,0.0,0.0,2019-03-17T21:17:35.335306,6,EyesOpen
-253.93816875674355,2191.6555990762236,-5652.934986702799,-7886.634217099455,29358.815176345728,-2907.7384361908958,4500.613153053899,4817.560889430152,0.0,0.0,0.0,2019-03-17T21:17:35.341230,6,EyesOpen
-422.69383939431185,2047.4421438505822,-5829.4467126663585,-8015.313209928658,29214.668776353454,-2601.0725022640827,4349.470657047112,4720.084931860559,0.0,0.0,0.0,2019-03-17T21:17:35.341868,6,EyesOpen
-378.5714958395357,2063.3342341583057,-5802.311694897616,-8046.717410888364,29227.856305582085,-2944.06002093077,4359.730107752098,4656.605977607486,0.0,0.0,0.0,2019-03-17T21:17:35.349225,6,EyesOpen
-213.9508979261992,2202.4514916481367,-5630.896166669866,-7922.352304739035,29369.94634508447,-3301.978504893602,4503.295362388535,4737.496940791242,0.0,0.0,0.0,2019-03-17T21:17:35.349923,6,EyesOpen
-237.0178982040761,2200.216317202606,-5631.432608536793,-7868.417545368379,29380.09403706718,-3005.996704816426,4511.744321792641,4811.324752727121,-0.006,1.01,0.24,2019-03-17T21:17:35.356351,6,EyesOpen
-398.91158329386514,2071.64908309568,-5792.208706403817,-7971.548494285166,29252.800852394208,-2602.100682509027,4377.9467794831735,4746.974080440293,0.0,0.0,0.0,2019-03-17T21:17:35.363263,6,EyesOpen
-407.3381909535159,2041.7648007589341,-5822.271802696205,-8045.778637621241,29216.63572986552,-2858.408136178033,4341.245215087559,4652.448553138799,0.0,0.0,0.0,2019-03-17T21:17:35.363985,6,EyesOpen
-247.29970065351733,2165.414651085693,-5665.831943253511,-7953.823560932107,29341.559629626234,-3300.659751970739,4469.968911405672,4701.242411284735,0.0,0.0,0.0,2019-03-17T21:17:35.370652,6,EyesOpen
-199.6904849637133,2229.765323372522,-5593.881677851878,-7850.916129459874,29410.268892081847,-3080.8303452527934,4542.343859951957,4819.349028986577,0.0,0.0,0.0,2019-03-17T21:17:35.371298,6,EyesOpen
-358.14200140738507,2090.7821763494226,-5754.993051885731,-7951.700145208853,29279.041800384737,-2622.038438563161,4411.317933954947,4771.225723174301,0.0,0.0,0.0,2019-03-17T21:17:35.378526,6,EyesOpen
-397.5034233931808,2045.0058037049537,-5822.897651540953,-8051.791256879718,29213.998224019793,-2761.0215855862602,4347.548407023955,4666.440745167822,0.0,0.0,0.0,2019-03-17T21:17:35.378904,6,EyesOpen
-251.278311166562,2163.38064234026,-5682.372234150438,-7985.160706658448,29324.639359073564,-3246.523826899985,4459.329481044946,4687.361977977989,0.0,0.0,0.0,2019-03-17T21:17:35.386874,6,EyesOpen
-203.892612921311,2232.246367007061,-5596.340369741961,-7882.342682164036,29404.189217590003,-3171.8690004192595,4538.789932583562,4791.297589695167,0.0,0.0,0.0,2019-03-17T21:17:35.387758,6,EyesOpen
-355.28097811710575,2107.7247986465454,-5726.069894560564,-7940.278403792192,29305.930948964473,-2675.2355903667917,4436.106018555882,4778.870019778016,0.0,0.0,0.0,2019-03-17T21:17:35.393529,6,EyesOpen
-440.5528832141022,2020.776512715401,-5838.901500570953,-8060.195512794914,29206.10805822707,-2692.647599297476,4334.584395239877,4663.579721877542,-0.008,1.014,0.23600000000000002,2019-03-17T21:17:35.394335,6,EyesOpen
-308.8117013945224,2122.61106045378,-5729.243842273217,-8024.477425155334,29291.245852857337,-3190.711520995083,4423.097303282893,4658.170599719358,0.0,0.0,0.0,2019-03-17T21:17:35.401534,6,EyesOpen
-193.90138314978876,2228.6477361497564,-5603.470576223204,-7899.151193994427,29395.96377563045,-3240.6453181082393,4531.995002269149,4769.884618506982,0.0,0.0,0.0,2019-03-17T21:17:35.402172,6,EyesOpen
-291.8914308418549,2152.830618957355,-5693.704568589279,-7910.304714477625,29335.256437689837,-2737.4404951859115,4471.466478284178,4803.2781247232115,0.0,0.0,0.0,2019-03-17T21:17:35.409661,6,EyesOpen
-419.96692657076443,2034.321669855317,-5833.805302835143,-8036.525015416743,29219.74262234481,-2626.70995315432,4348.777752968997,4691.720568146774,0.0,0.0,0.0,2019-03-17T21:17:35.410368,6,EyesOpen
-316.14307357586307,2118.4536359850927,-5746.722906437267,-8025.5950123780985,29282.059285886204,-3091.2909616578772,4409.753311843075,4660.852809053995,0.0,0.0,0.0,2019-03-17T21:17:35.416744,6,EyesOpen
-171.63904567230293,2243.086963067885,-5598.48613720967,-7901.162850995404,29410.53711301531,-3266.0592515539233,4537.51588314961,4764.073164948602,0.0,0.0,0.0,2019-03-17T21:17:35.417409,6,EyesOpen
-268.891485797344,2168.700357520623,-5679.0641759710525,-7913.389255212457,29354.166013499023,-2828.6579643080195,4481.368301077879,4795.455014163854,0.0,0.0,0.0,2019-03-17T21:17:35.423310,6,EyesOpen
-418.4693596922588,2041.675393781113,-5838.990907548775,-8043.3199457311575,29220.077898511638,-2601.6759993643764,4343.346279066358,4691.094719302025,0.0,0.0,0.0,2019-03-17T21:17:35.431090,6,EyesOpen
-358.09729791847445,2104.707313145079,-5784.877334222476,-8057.110972060082,29256.846518140617,-3014.244498520434,4373.096450936371,4636.4447041088,0.0,0.0,0.0,2019-03-17T21:17:35.431912,6,EyesOpen
-184.26778128955144,2239.890663610776,-5620.0108671201315,-7925.056865818127,29396.142589586092,-3300.8832694152916,4511.99019098165,4729.115036620502,-0.012,1.016,0.23600000000000002,2019-03-17T21:17:35.439235,6,EyesOpen
-250.6077588329028,2181.6643693047013,-5652.622062280424,-7890.4116619124015,29378.14943529957,-2920.05424738577,4497.886240230351,4791.722272839817,0.0,0.0,0.0,2019-03-17T21:17:35.440132,6,EyesOpen
-409.5733653990466,2044.9387484715878,-5806.178546688384,-7993.877886996018,29252.487927971833,-2569.93652223784,4371.710642780143,4718.877937659971,0.0,0.0,0.0,2019-03-17T21:17:35.446274,6,EyesOpen
-370.8601440024548,2056.472248610526,-5801.484680352769,-8043.990498064816,29247.525840702754,-2905.726779189918,4361.987633942083,4636.735276786719,0.0,0.0,0.0,2019-03-17T21:17:35.446994,6,EyesOpen
-196.00244712858762,2213.5603086424244,-5635.008887649642,-7930.980078098783,29383.178577802013,-3288.969789620613,4500.724911776175,4707.4114927544,0.0,0.0,0.0,2019-03-17T21:17:35.453973,6,EyesOpen
-201.6574384757803,2226.077285537396,-5612.7912536610675,-7862.9413679768295,29409.330118814723,-2999.157071013102,4527.144673722348,4796.796118831172,0.0,0.0,0.0,2019-03-17T21:17:35.454619,6,EyesOpen
-375.7998795270776,2072.6549115961684,-5784.162078399906,-7971.794363474174,29275.957259649906,-2585.716853823287,4388.563858099444,4730.769065710195,0.0,0.0,0.0,2019-03-17T21:17:35.461786,6,EyesOpen
-405.21477523026175,2051.3089956413505,-5828.016201021219,-8059.279091272247,29232.70663412889,-2820.2090049039134,4341.960470910129,4632.197872662291,0.0,0.0,0.0,2019-03-17T21:17:35.462467,6,EyesOpen
-251.8371047779447,2187.475822863081,-5676.091393958497,-7978.835162977596,29351.3273419532,-3277.9950830930575,4462.4140217797785,4671.916922559371,0.0,0.0,0.0,2019-03-17T21:17:35.469960,6,EyesOpen
-197.23179307362952,2229.2288815055945,-5598.374378487394,-7869.378670379958,29429.737261502418,-3089.1004907012575,4542.008583785127,4792.079900751102,0.0,0.0,0.0,2019-03-17T21:17:35.470691,6,EyesOpen
-347.5919780244801,2113.8268248828444,-5740.218548800773,-7944.011145116227,29324.5723038402,-2605.0287610326723,4435.21194877767,4769.750508040251,-0.016,1.012,0.244,2019-03-17T21:17:35.477081,6,EyesOpen
-416.92708932484265,2054.6170538207357,-5838.63327963749,-8070.924350133461,29231.857267839587,-2738.021640541749,4339.054744130939,4643.597262334498,0.0,0.0,0.0,2019-03-17T21:17:35.477833,6,EyesOpen
-284.49300342714827,2146.348613065316,-5709.909583319376,-8016.989590762805,29329.46733587591,-3233.872739538281,4438.430599979234,4654.616672350964,0.0,0.0,0.0,2019-03-17T21:17:35.484388,6,EyesOpen
-214.12971188184167,2209.827567318388,-5608.030332092087,-7901.2746097176805,29420.081307897726,-3184.721253481061,4533.693734847753,4766.4200981164095,0.0,0.0,0.0,2019-03-17T21:17:35.490654,6,EyesOpen
-334.42680054030427,2096.3477607187942,-5722.0912840475185,-7936.210386301325,29337.26809469081,-2672.7545467322525,4452.579254219443,4778.3335779110885,0.0,0.0,0.0,2019-03-17T21:17:35.491473,6,EyesOpen
-408.8804613209321,2021.737637726979,-5818.449654394348,-8038.179044506436,29254.164308805983,-2639.271633538203,4368.179067156204,4685.484431443743,0.0,0.0,0.0,2019-03-17T21:17:35.498558,6,EyesOpen
-304.07313156999726,2116.6207929397574,-5723.812368370577,-8022.0187332652495,29320.191361926958,-3143.9963750834913,4434.072009810449,4658.63998635292,0.0,0.0,0.0,2019-03-17T21:17:35.499202,6,EyesOpen
-175.14826955178614,2242.505817712047,-5584.449241691737,-7888.802336311619,29441.31546513027,-3215.432550362653,4557.230121759191,4774.04204297567,0.0,0.0,0.0,2019-03-17T21:17:35.506578,6,EyesOpen
-282.3248842149835,2156.451601559115,-5678.728899804223,-7909.656513888421,29375.57898468721,-2732.813684083663,4492.566525049988,4795.455014163854,0.0,0.0,0.0,2019-03-17T21:17:35.507211,6,EyesOpen
-415.6083364019795,2028.6666785081243,-5832.15127374545,-8047.075038799649,29245.760052890786,-2607.5321564116666,4354.633910016288,4674.621483638463,0.0,0.0,0.0,2019-03-17T21:17:35.513710,6,EyesOpen
-314.2878787860726,2099.8569845982774,-5758.859903676499,-8045.711582387875,29295.626794770575,-3069.810935236327,4400.700855338676,4633.136645929414,-0.014,1.01,0.25,2019-03-17T21:17:35.514680,6,EyesOpen
-176.82465038593418,2243.5787014459015,-5604.1634803013185,-7911.422301700391,29426.943293445504,-3267.7579841325264,4530.162159223814,4735.798208212639,0.0,0.0,0.0,2019-03-17T21:17:35.521414,6,EyesOpen
-252.2170844336849,2185.4641658621035,-5659.528751317114,-7893.8761823029745,29396.746086686384,-2828.277984652279,4496.120452418381,4785.799060559161,0.0,0.0,0.0,2019-03-17T21:17:35.522164,6,EyesOpen
-426.85126386299896,2033.0252686769093,-5831.145445244962,-8031.182948491925,29246.78823313573,-2587.102661979516,4344.1956453556595,4672.341605704022,0.0,0.0,0.0,2019-03-17T21:17:35.529506,6,EyesOpen
-366.1886294112956,2071.64908309568,-5785.838459234054,-8052.707678402386,29274.23617532685,-2982.3038556938,4371.755346269053,4616.395189332389,0.0,0.0,0.0,2019-03-17T21:17:35.530541,6,EyesOpen
-197.38825528481667,2222.0092680465305,-5618.714465941724,-7923.089912306061,29421.891799198605,-3286.8687256418143,4522.070827730993,4712.9994288682265,0.0,0.0,0.0,2019-03-17T21:17:35.536309,6,EyesOpen
-233.15104641330797,2203.859651548821,-5637.646393495369,-7881.426260641368,29418.650796252587,-2924.211671854457,4518.047513729038,4784.748528569762,0.0,0.0,0.0,2019-03-17T21:17:35.536801,6,EyesOpen
-407.3381909535159,2049.8337805073,-5818.4720061388025,-8016.4978523847885,29268.424721768468,-2582.1182229659826,4363.5299043095,4690.491222201732,0.0,0.0,0.0,2019-03-17T21:17:35.542825,6,EyesOpen
-390.12734772292947,2049.4538008515597,-5828.776160332699,-8082.636664228042,29250.006884337294,-2898.23894479739,4341.245215087559,4603.677046737319,0.0,0.0,0.0,2019-03-17T21:17:35.552060,6,EyesOpen
-218.6894677507243,2198.383474157271,-5652.264434369139,-7966.988738416284,29394.399153518578,-3288.9250861317023,4484.005806923605,4679.181239507347,0.0,0.0,0.0,2019-03-17T21:17:35.552477,6,EyesOpen
-196.60594422888093,2237.0072885760414,-5607.896221625355,-7882.409737397402,29443.77415702035,-3015.6750101655734,4532.866720302906,4783.854458791549,-0.014,1.006,0.254,2019-03-17T21:17:35.560067,6,EyesOpen
-348.2848821025946,2118.252470284995,-5758.4799240207585,-7968.486305294789,29332.060138232726,-2571.7693652831754,4418.671657880743,4746.5717490400975,0.0,0.0,0.0,2019-03-17T21:17:35.560413,6,EyesOpen
-379.35380689547145,2077.192315720596,-5808.614886834012,-8058.385021494034,29282.59572775313,-2783.59684748612,4366.301520621958,4645.474808868744,0.0,0.0,0.0,2019-03-17T21:17:35.566443,6,EyesOpen
-232.2346248906404,2183.452508861126,-5664.736707775201,-7988.938151471395,29393.6391942071,-3259.26432123951,4474.841591696929,4671.313425459079,0.0,0.0,0.0,2019-03-17T21:17:35.566774,6,EyesOpen
-187.732301680124,2232.4028292182484,-5593.34523598495,-7888.310597933602,29462.43786364053,-3114.983810780503,4547.082429776482,4778.780612800195,0.0,0.0,0.0,2019-03-17T21:17:35.573409,6,EyesOpen
-353.91752170533204,2088.681112370624,-5742.297261035116,-7964.306529081647,29347.594600629163,-2634.644822435954,4434.027306321538,4748.873978718994,0.0,0.0,0.0,2019-03-17T21:17:35.573843,6,EyesOpen
-411.9873538002198,2033.3605448437388,-5823.858776552532,-8062.855370385096,29275.89020441654,-2707.578564593621,4359.417183329723,4646.570044347053,0.0,0.0,0.0,2019-03-17T21:17:35.581621,6,EyesOpen
-270.9031427983216,2152.8082672129,-5704.36635069446,-8023.583355377121,29366.034789804795,-3215.8572335073036,4445.6278616938425,4641.764419289162,0.0,0.0,0.0,2019-03-17T21:17:35.582239,6,EyesOpen
-180.02094984304307,2246.1938555471725,-5590.43950920576,-7900.782871339664,29462.3037531738,-3192.7455297405163,4545.2942902200575,4757.859379990027,0.0,0.0,0.0,2019-03-17T21:17:35.589906,6,EyesOpen
-320.434608511282,2122.320487775861,-5702.17587973784,-7931.762389154719,29377.791807388287,-2685.539744560688,4461.207027579192,4771.270426663212,0.0,0.0,0.0,2019-03-17T21:17:35.590819,6,EyesOpen
-446.2972815391161,2014.093341123264,-5836.286346469682,-8061.648376184509,29259.41696875298,-2651.2745203107024,4341.28991857647,4650.883931026928,-0.018000000000000002,1.01,0.25,2019-03-17T21:17:35.596348,6,EyesOpen
-313.5949747079581,2122.1416738202183,-5728.640345172924,-8027.226689723336,29342.788975571275,-3130.630031899218,4425.801864361985,4641.451494866788,0.0,0.0,0.0,2019-03-17T21:17:35.597036,6,EyesOpen
-184.26778128955144,2245.858579380343,-5590.595971416948,-7894.256161958714,29464.091892730226,-3229.1565214582115,4555.129057780392,4756.965310211815,0.0,0.0,0.0,2019-03-17T21:17:35.603430,6,EyesOpen
-292.02554130858675,2155.7810492254557,-5671.621045067435,-7895.664321859399,29410.67122348204,-2739.0498207866935,4502.267182143591,4798.025464776214,0.0,0.0,0.0,2019-03-17T21:17:35.611191,6,EyesOpen
-425.3536969844934,2021.06708539332,-5818.807282305633,-8019.627096608531,29285.680268487966,-2566.3155396360803,4374.77283177052,4690.938257090838,0.0,0.0,0.0,2019-03-17T21:17:35.611862,6,EyesOpen
-337.08665813048583,2096.548926418892,-5758.770496698678,-8029.841843824607,29323.432364872977,-3021.6429259351407,4410.557974643466,4638.456361109777,0.0,0.0,0.0,2019-03-17T21:17:35.619083,6,EyesOpen
-188.0675778469536,2257.7497074305666,-5595.803927875034,-7894.70319684782,29464.293058430325,-3238.6113093628064,4548.781162355085,4746.728211251284,0.0,0.0,0.0,2019-03-17T21:17:35.619763,6,EyesOpen
-254.85459027941113,2198.472881135092,-5637.311117328539,-7869.8704087579745,29446.992808221916,-2800.383007572056,4526.6305835998755,4813.202299261367,0.0,0.0,0.0,2019-03-17T21:17:35.627443,6,EyesOpen
-406.6676386198567,2047.2633298949397,-5805.2621251657165,-7999.287009154202,29312.100030434136,-2522.617879225955,4384.8758202643185,4719.056751615614,0.0,0.0,0.0,2019-03-17T21:17:35.628248,6,EyesOpen
-366.97094046723134,2071.2467516954844,-5786.62077028999,-8051.590091179621,29312.770582767796,-2922.57999450922,4386.596904587377,4641.183273933324,0.0,0.0,0.0,2019-03-17T21:17:35.633939,6,EyesOpen
-214.5096915375819,2214.2308609760835,-5634.673611482813,-7950.671964963909,29438.946180218005,-3272.1389260457668,4516.728760806174,4707.6573619434075,-0.014,1.01,0.252,2019-03-17T21:17:35.634862,6,EyesOpen
-223.89742420881083,2223.9762215585974,-5622.715428199223,-7884.622560098477,29461.767311306874,-2915.1368636056022,4541.002755284638,4800.841784577583,0.0,0.0,0.0,2019-03-17T21:17:35.642008,6,EyesOpen
-379.5996760844798,2081.9085338006657,-5782.329235354571,-7993.788480018196,29334.116498722615,-2533.5702340090556,4409.1721664872375,4732.154873866424,0.0,0.0,0.0,2019-03-17T21:17:35.642793,6,EyesOpen
-383.0194929861418,2064.0494899808755,-5803.00459897573,-8070.656129199998,29305.79683849774,-2836.2352056783684,4373.364671869836,4630.901471483883,0.0,0.0,0.0,2019-03-17T21:17:35.649198,6,EyesOpen
-215.71668573816845,2219.1705965007063,-5644.240158109684,-7972.330805341102,29434.408776093576,-3258.1467340167446,4501.887202487851,4684.322140732067,0.0,0.0,0.0,2019-03-17T21:17:35.649857,6,EyesOpen
-188.33579878041732,2259.962530131642,-5604.051721579042,-7890.031682256661,29478.5087679039,-3028.0355248493584,4545.9424908092615,4776.478383121298,0.0,0.0,0.0,2019-03-17T21:17:35.656675,6,EyesOpen
-352.0623269155415,2101.443958454604,-5770.482810793258,-7986.546514814677,29346.74523433986,-2584.7557288117087,4413.083721766916,4718.3638475375,0.0,0.0,0.0,2019-03-17T21:17:35.657620,6,EyesOpen
-389.5014988781809,2047.0398124503868,-5818.181433460883,-8068.085678587638,29295.112704648105,-2761.2674547752686,4355.550331538955,4619.345619600489,0.0,0.0,0.0,2019-03-17T21:17:35.663734,6,EyesOpen
-248.57375008746985,2180.3679681262934,-5663.619120552436,-7986.39005260349,29415.20862760647,-3232.30811742641,4470.706518972697,4652.090925227514,0.0,0.0,0.0,2019-03-17T21:17:35.664428,6,EyesOpen
-176.6011329413811,2258.6214254643232,-5576.760241599112,-7871.189161680837,29496.2113495125,-3105.8642990427375,4553.586787412976,4769.28112140669,0.0,0.0,0.0,2019-03-17T21:17:35.671904,6,EyesOpen
-320.792236422567,2128.757790178989,-5719.051446801597,-7939.607851458532,29380.92105161203,-2618.0821797945714,4441.537492458522,4747.2199496293015,-0.01,1.008,0.248,2019-03-17T21:17:35.678024,6,EyesOpen
-403.8289670740327,2044.4023066046605,-5814.292229925661,-8050.159579534481,29288.206015611413,-2671.525200787211,4351.169389625716,4637.606994820475,0.0,0.0,0.0,2019-03-17T21:17:35.678676,6,EyesOpen
-256.77684030256756,2157.8597614597993,-5682.573399850536,-7993.833183507108,29386.888967381594,-3159.106154335279,4447.840684394919,4646.994727491704,0.0,0.0,0.0,2019-03-17T21:17:35.686291,6,EyesOpen
-149.84609482837854,2278.760347218555,-5560.756392569112,-7864.953024977806,29490.556358165308,-3158.43560200162,4553.296214735057,4762.329728881089,0.0,0.0,0.0,2019-03-17T21:17:35.686915,6,EyesOpen
-302.70967515822355,2177.9092762362097,-5679.377100393427,-7903.263914974203,29402.758705944863,-2660.7293082152974,4467.085536370938,4768.319996395111,0.0,0.0,0.0,2019-03-17T21:17:35.694306,6,EyesOpen
-409.68512412132316,2054.6394055651913,-5801.752901286233,-8014.597954106088,29299.672460516987,-2577.9607984972954,4365.429802588201,4668.899437057905,0.0,0.0,0.0,2019-03-17T21:17:35.695147,6,EyesOpen
-291.1761750192851,2139.799551939911,-5712.077702531541,-7996.2471719082805,29370.259269506845,-3056.399888563143,4436.284832511525,4647.330003658534,0.0,0.0,0.0,2019-03-17T21:17:35.701423,6,EyesOpen
-167.4592694591605,2264.4552307671584,-5575.933227054265,-7873.5584465931,29483.537910406343,-3197.7299687540494,4557.610101414932,4750.259786875223,0.0,0.0,0.0,2019-03-17T21:17:35.702118,6,EyesOpen
-243.3881453738386,2208.3523521843376,-5632.930175415298,-7853.754801005698,29454.43593912553,-2703.3317331471126,4529.201034212236,4812.95643007236,0.0,0.0,0.0,2019-03-17T21:17:35.708918,6,EyesOpen
-384.1594319533625,2085.708330358068,-5787.760709257211,-7984.91483746944,29330.294350420758,-2506.7034371737764,4399.158584971259,4711.658324200907,0.0,0.0,0.0,2019-03-17T21:17:35.709840,6,EyesOpen
-307.11296881591903,2152.5623980238915,-5743.638365702434,-8012.541593616199,29364.62662990411,-2955.213541413968,4426.606527162377,4650.928634515838,-0.008,1.012,0.246,2019-03-17T21:17:35.716928,6,EyesOpen
-162.22896125661867,2258.219094064128,-5592.607628417924,-7897.899496304929,29488.678811631064,-3221.9592597436026,4548.691755377264,4732.4901500332535,0.0,0.0,0.0,2019-03-17T21:17:35.717601,6,EyesOpen
-235.117999925375,2194.538974110958,-5629.353896302449,-7870.764478536186,29468.69635208802,-2815.6268972905755,4530.18451096827,4791.588162373086,0.0,0.0,0.0,2019-03-17T21:17:35.725716,6,EyesOpen
-406.19825198629525,2057.8804085112106,-5794.980322716275,-7998.705863798365,29329.13205970908,-2516.2476320561927,4389.793204044486,4697.353207749511,0.0,0.0,0.0,2019-03-17T21:17:35.726357,6,EyesOpen
-360.13130666390737,2081.6626646116574,-5788.252447635227,-8052.148884791003,29323.834696273174,-2891.2428487828793,4382.1712591852265,4614.651753264875,0.0,0.0,0.0,2019-03-17T21:17:35.731613,6,EyesOpen
-181.3397027659062,2228.670087894212,-5613.372399016906,-7927.403798985934,29472.183224223045,-3240.332393685865,4530.2739179460905,4698.671960672375,0.0,0.0,0.0,2019-03-17T21:17:35.738444,6,EyesOpen
-223.00335443059856,2220.3328872123825,-5613.238288550173,-7878.431126884357,29486.331878463257,-2930.045477157292,4537.873511060895,4771.493944107765,0.0,0.0,0.0,2019-03-17T21:17:35.739092,6,EyesOpen
-382.81832728604405,2088.7928710929004,-5778.641197519445,-7989.765166016241,29349.449795418954,-2536.9900509107174,4396.990465759095,4698.35903625,0.0,0.0,0.0,2019-03-17T21:17:35.746313,6,EyesOpen
-386.6851790768122,2057.4333736221047,-5804.345703643049,-8064.375289008056,29315.296329891247,-2805.4568535634107,4363.3287386094025,4604.0570263930595,0.0,0.0,0.0,2019-03-17T21:17:35.747214,6,EyesOpen
-202.5291565095373,2207.8159103174103,-5623.765960188623,-7952.661270220432,29457.073444971258,-3228.195396446633,4507.095158945937,4668.5641608910755,0.0,0.0,0.0,2019-03-17T21:17:35.754533,6,EyesOpen
-190.57097322594802,2231.7099251401337,-5587.980817315676,-7880.711004818798,29492.45625644401,-3037.1997400760342,4543.461447174722,4749.924510708393,-0.006,1.008,0.248,2019-03-17T21:17:35.755315,6,EyesOpen
-364.19932415477325,2081.0368157669086,-5749.628633216457,-7974.72244199782,29363.598449659166,-2591.125975981471,4413.486053167111,4694.603943181508,0.0,0.0,0.0,2019-03-17T21:17:35.761164,6,EyesOpen
-403.8289670740327,2058.774478289423,-5795.00267446073,-8055.144018548014,29314.84929500214,-2730.6679166159533,4359.528942052,4603.073549637026,0.0,0.0,0.0,2019-03-17T21:17:35.762106,6,EyesOpen
-241.33178488395035,2197.0423694899523,-5631.387905047883,-7972.151991385459,29440.82372675225,-3198.1546518987006,4486.844478469429,4643.463151867766,0.0,0.0,0.0,2019-03-17T21:17:35.769078,6,EyesOpen
-159.97143506663264,2270.2666843255383,-5536.460046346194,-7861.443801098323,29525.268617304402,-3098.175298950112,4574.932703367795,4759.6028160575415,0.0,0.0,0.0,2019-03-17T21:17:35.769717,6,EyesOpen
-314.80196890854467,2131.015316368975,-5682.193420194795,-7931.717685665809,29413.867522939152,-2609.2532407347253,4462.659890968787,4738.525121036187,0.0,0.0,0.0,2019-03-17T21:17:35.777168,6,EyesOpen
-414.17782475683987,2038.2555768794512,-5795.807337261122,-8055.21107378138,29313.23996940136,-2643.6972789403535,4360.020680430017,4621.424331834833,0.0,0.0,0.0,2019-03-17T21:17:35.777811,6,EyesOpen
-285.27531448308406,2156.831581214855,-5686.753176063678,-8018.285991941213,29398.131894842612,-3142.5435116938966,4442.588024447921,4615.657581765364,0.0,0.0,0.0,2019-03-17T21:17:35.785190,6,EyesOpen
-159.5020484330712,2262.0635941104406,-5551.48041862016,-7872.262045414692,29523.32401553679,-3158.4132502571647,4570.551761454554,4747.018783929203,0.0,0.0,0.0,2019-03-17T21:17:35.786043,6,EyesOpen
-285.4094249498159,2160.4749155610702,-5653.046745425075,-7895.083176503561,29449.943238490017,-2654.8507994235515,4498.377978608368,4766.665967305418,0.0,0.0,0.0,2019-03-17T21:17:35.791307,6,EyesOpen
-396.4305396593261,2047.8668269952332,-5793.728625026778,-8024.432721666422,29325.734594551875,-2564.013309957184,4370.391889857279,4648.022907736648,-0.004,1.004,0.252,2019-03-17T21:17:35.799197,6,EyesOpen
-292.5619831755141,2124.7121244325785,-5708.70258911879,-8014.217974450347,29386.263118536845,-3040.88777791116,4427.411189962768,4615.702285254274,0.0,0.0,0.0,2019-03-17T21:17:35.800082,6,EyesOpen
-176.10939456336433,2251.804143405455,-5562.879808292367,-7886.075423488072,29512.66223343161,-3206.3800938582535,4553.4526769462445,4721.090760361048,0.0,0.0,0.0,2019-03-17T21:17:35.806738,6,EyesOpen
-245.310395396995,2200.5515933694355,-5620.368495031416,-7868.663414557388,29485.16958775158,-2731.807855583174,4527.65876384482,4783.206258202345,0.0,0.0,0.0,2019-03-17T21:17:35.807659,6,EyesOpen
