eeg1,eeg2,eeg3,eeg4,eeg5,eeg6,eeg7,eeg8,accx,accy,accz,iso_utc,session_id,command_name
0.0,0.0,0.0,0.0,0.0,0.0,0.0,0.0,0.008,1.016,0.246,2019-03-17T21:19:07.844344,8,EyesOpen
-7158.839065890202,-4236.057905680884,-3086.2841708998885,-6353.639823632219,22803.42850725991,930.3690112077012,7211.231554893441,5248.256653339464,0.0,0.0,0.0,2019-03-17T21:19:07.850611,8,EyesOpen
-6968.312796153164,-4043.3411649872264,-2987.087129007236,-6304.063654430349,22907.76645037728,288.24809649563986,7340.849320989767,5251.587063263305,0.0,0.0,0.0,2019-03-17T21:19:07.851542,8,EyesOpen
-6701.1200429344235,-3775.433155945916,-2699.286067400702,-6031.551186031245,23172.500511705937,141.4418389131831,7604.108167184373,5500.674903473247,0.0,0.0,0.0,2019-03-17T21:19:07.856817,8,EyesOpen
-6860.778553578682,-3931.0236490993084,-2760.1722192969587,-6047.063296683228,23106.24994114041,758.7523172798535,7513.673009118201,5530.469778832171,0.0,0.0,0.0,2019-03-17T21:19:07.857499,8,EyesOpen
-7149.5183884523385,-4225.776103231443,-3049.917882671104,-6321.118035449748,22839.28070536622,987.9471049245722,7243.194549464531,5284.6676450571595,0.0,0.0,0.0,2019-03-17T21:19:07.863143,8,EyesOpen
-7046.186273835454,-4121.86284325872,-3036.015097619903,-6352.9245678096495,22863.532348100227,388.74153956670045,7293.105994833231,5213.119711055721,0.0,0.0,0.0,2019-03-17T21:19:07.863687,8,EyesOpen
-6738.782732341616,-3810.391284274016,-2734.7582858512746,-6071.985491750896,23138.525860133872,82.45558529562776,7577.464887793647,5452.842170338889,0.0,0.0,0.0,2019-03-17T21:19:07.871215,8,EyesOpen
-6795.846735936015,-3873.557314104714,-2710.05960822816,-6003.209174061915,23152.696866118535,636.8906065095194,7567.07132662193,5551.949805253721,0.004,1.02,0.254,2019-03-17T21:19:07.879078,8,EyesOpen
-7115.186108968986,-4196.942352884096,-3013.0375043198474,-6277.286264572891,22872.09306622661,1008.2648406344463,7274.352881235228,5317.48000591755,0.0,0.0,0.0,2019-03-17T21:19:07.879574,8,EyesOpen
-7087.961684222422,-4169.136782781695,-3067.3745950906987,-6375.410422731688,22825.735548226305,502.556622333124,7250.905901301611,5189.493917166462,0.0,0.0,0.0,2019-03-17T21:19:07.886389,8,EyesOpen
-6763.973148342747,-3845.0588399241974,-2779.640588717531,-6119.080617318227,23093.956481689987,60.081489095865386,7532.068494804918,5399.712073768625,0.0,0.0,0.0,2019-03-17T21:19:07.887055,8,EyesOpen
-6734.558252639563,-3821.455397779393,-2675.81673572263,-5977.392909216036,23180.524787965394,519.4545411413361,7599.235486893116,5560.734040824657,0.0,0.0,0.0,2019-03-17T21:19:07.893688,8,EyesOpen
-7063.553579277227,-4148.617881371722,-2962.2096374284793,-6219.75287434493,22915.611912681095,1014.7468465264853,7316.083588133287,5360.3283000383735,0.0,0.0,0.0,2019-03-17T21:19:07.894227,8,EyesOpen
-7144.288080249797,-4209.436978034613,-3107.1607002211454,-6392.59891421782,22792.900835621458,622.9654697138632,7213.176156661053,5172.931274525079,0.0,0.0,0.0,2019-03-17T21:19:07.901709,8,EyesOpen
-6837.331573645065,-3896.065520771208,-2841.666679581008,-6166.287501607836,23040.692274652993,73.96192240261107,7482.089994202852,5348.459523732606,0.0,0.0,0.0,2019-03-17T21:19:07.902476,8,EyesOpen
-6732.390133427398,-3801.6294004475358,-2664.350290817057,-5959.17623748496,23194.82990441679,396.63170535942385,7618.659152824778,5560.510523380104,0.0,0.0,0.0,2019-03-17T21:19:07.909692,8,EyesOpen
-7012.569250174672,-4087.508212030913,-2890.706406915952,-6137.431399516035,22984.79056177027,996.954857940061,7386.379824445227,5433.619670107326,0.0,0.0,0.0,2019-03-17T21:19:07.910169,8,EyesOpen
-7158.436734490006,-4229.017106177462,-3101.1257292182127,-6367.140277283225,22797.46059149034,755.3995556115575,7212.550307816304,5209.588135431783,0.004,1.016,0.254,2019-03-17T21:19:07.916441,8,EyesOpen
-6876.2236089972985,-3945.7310969509003,-2892.919229617027,-6206.095958482738,22994.93825375298,129.57306260741504,7436.961822147588,5326.24188974403,0.0,0.0,0.0,2019-03-17T21:19:07.917006,8,EyesOpen
-6695.219182398222,-3769.7781645987234,-2660.706956470842,-5962.841923575631,23201.423669031105,291.98083781967614,7635.445312910714,5572.178133985774,0.0,0.0,0.0,2019-03-17T21:19:07.924356,8,EyesOpen
-6951.571339556139,-4034.2440049939164,-2847.2769674392903,-6102.786195610309,23022.74382385538,930.1678455076034,7429.786912177434,5494.081138858931,0.0,0.0,0.0,2019-03-17T21:19:07.924865,8,EyesOpen
-7152.89350186509,-4241.556434816889,-3092.7885285363827,-6359.406573701689,22801.305091536655,864.5431237868219,7211.52212757136,5257.4879237995065,0.0,0.0,0.0,2019-03-17T21:19:07.931411,8,EyesOpen
-6932.885281191502,-4008.2489261923943,-2942.204826140979,-6263.450534755056,22946.166747351497,210.28521183552886,7380.74718484249,5309.634543613737,0.0,0.0,0.0,2019-03-17T21:19:07.939341,8,EyesOpen
-6703.914010991337,-3771.3874901995055,-2673.872133955018,-6000.214040304904,23186.58211071278,191.59915347089213,7610.120786442851,5557.3812791563605,0.0,0.0,0.0,2019-03-17T21:19:07.940194,8,EyesOpen
-6892.093347560567,-3960.818524458233,-2780.4228997734667,-6054.126447931105,23078.354964060185,851.5120567693779,7474.8256772548775,5553.380316898861,0.0,0.0,0.0,2019-03-17T21:19:07.945911,8,EyesOpen
-7150.501865208372,-4223.987963675018,-3063.1948188775564,-6329.611698342765,22818.04654813368,949.0103660834272,7212.706770027491,5296.938752763123,0.0,0.0,0.0,2019-03-17T21:19:07.946609,8,EyesOpen
-6975.465354378862,-4048.3703074896707,-2981.0968614932135,-6291.658436257653,22905.128944531556,313.5726229635028,7325.650134760158,5285.494659602005,0.0,0.0,0.0,2019-03-17T21:19:07.954149,8,EyesOpen
-6692.805193997049,-3765.5089814077596,-2681.8517067255625,-6005.6008107186335,23179.384848998172,126.98026025059943,7600.93421947172,5541.757409782102,0.002,1.006,0.264,2019-03-17T21:19:07.954837,8,EyesOpen
-6826.021590950679,-3906.973172065398,-2727.829245070129,-6002.7844909172645,23130.076900729764,722.9895261513623,7521.429064444193,5584.717462625202,0.0,0.0,0.0,2019-03-17T21:19:07.962533,8,EyesOpen
-7122.584536383693,-4206.061864621862,-3026.0909230817465,-6284.19295360958,22857.452673608386,981.9791891550052,7232.421008637072,5332.567433424882,0.0,0.0,0.0,2019-03-17T21:19:07.963096,8,EyesOpen
-7021.7334654013475,-4102.796805238343,-3019.4748067229757,-6326.415398885656,22875.75875231728,410.7803595996332,7271.134230033664,5253.285795841908,0.0,0.0,0.0,2019-03-17T21:19:07.968932,8,EyesOpen
-6714.821662285526,-3793.918048610455,-2724.700000846386,-6060.876674756608,23151.176947495576,59.4779919955721,7553.8390939043875,5479.127821818331,0.0,0.0,0.0,2019-03-17T21:19:07.969618,8,EyesOpen
-6767.460020477774,-3847.1822556474517,-2684.802136993663,-5978.823420861176,23180.16716005411,586.1074431070618,7557.214207317139,5589.2548667496285,0.0,0.0,0.0,2019-03-17T21:19:07.976773,8,EyesOpen
-7094.846021514657,-4182.369015499236,-2995.02199828887,-6254.040450339371,22896.076488027156,984.3484740672677,7256.069154270787,5358.003718615022,0.0,0.0,0.0,2019-03-17T21:19:07.977409,8,EyesOpen
-7093.817841269713,-4174.434146217603,-3072.403737593143,-6368.548437183909,22837.023179176234,508.5021863582357,7216.595973562715,5218.5735367028155,0.0,0.0,0.0,2019-03-17T21:19:07.984743,8,EyesOpen
-6775.305482781588,-3850.780886504756,-2785.6755597204638,-6115.750207394387,23105.445278340016,36.410991717695204,7504.799366569444,5424.678972325203,0.0,0.0,0.0,2019-03-17T21:19:07.985398,8,EyesOpen
-6737.799255585583,-3810.8606709075775,-2669.267674597225,-5965.859409077098,23202.094221364765,455.1485723434177,7580.549428528479,5594.216954018707,0.0,0.0,0.0,2019-03-17T21:19:07.991726,8,EyesOpen
-7051.237768082353,-4126.668468316611,-2931.4536370579767,-6189.354501885713,22955.48742478936,988.6176572582314,7311.680294475591,5422.1979286906635,0.004,1.004,0.268,2019-03-17T21:19:07.998304,8,EyesOpen
-7133.045152788777,-4211.694504224599,-3084.56308657683,-6369.777783128951,22825.556734270664,644.3113856686814,7196.23353436393,5232.230452565009,0.0,0.0,0.0,2019-03-17T21:19:07.998827,8,EyesOpen
-6825.127521172467,-3903.7321691193783,-2837.978641745882,-6162.7335742394425,23061.904080141077,74.18543984716415,7451.848083954822,5388.893829452256,0.0,0.0,0.0,2019-03-17T21:19:08.006257,8,EyesOpen
-6695.934438220792,-3781.8257548601337,-2645.7536394302415,-5946.03341174524,23232.246724634973,365.853353244466,7609.0702544534515,5613.417102505816,0.0,0.0,0.0,2019-03-17T21:19:08.007031,8,EyesOpen
-6985.903619039491,-4074.9241799025754,-2868.9805113053935,-6125.495567976901,23018.69815810897,973.664340217631,7369.571312614837,5489.834307412423,0.0,0.0,0.0,2019-03-17T21:19:08.014381,8,EyesOpen
-7160.046060090788,-4238.583652804334,-3091.0674442133245,-6364.234550504035,22818.694748722883,776.6784163330099,7180.7437754564035,5252.995223163989,0.0,0.0,0.0,2019-03-17T21:19:08.014951,8,EyesOpen
-6879.866943343514,-3955.610568000146,-2892.628656939108,-6209.135795728659,23012.484373150393,147.43210642720538,7401.221382763551,5355.612081958304,0.0,0.0,0.0,2019-03-17T21:19:08.022415,8,EyesOpen
-6675.03555715508,-3755.36128942505,-2645.418363263412,-5949.363821669081,23239.086358438297,272.44541316573776,7617.630972579834,5607.091558824964,0.0,0.0,0.0,2019-03-17T21:19:08.023624,8,EyesOpen
-6935.947470181879,-4009.165347715062,-2822.600641560631,-6075.3382534191915,23065.45800750947,909.6936475865422,7417.001714348998,5532.883767233345,0.0,0.0,0.0,2019-03-17T21:19:08.030201,8,EyesOpen
-7167.556246227771,-4239.634184793733,-3089.346359890266,-6351.49405616451,22821.444013290886,873.3944145911235,7170.551379984782,5270.831915239324,0.0,0.0,0.0,2019-03-17T21:19:08.030859,8,EyesOpen
-6936.998002171279,-4005.4326063910257,-2942.2942331188005,-6259.0025376084495,22970.1725208965,228.21131088868512,7343.30801287985,5316.049494272411,0.004,1.004,0.262,2019-03-17T21:19:08.036760,8,EyesOpen
-6674.052080399047,-3742.21846368533,-2658.203561091848,-5978.354034227614,23235.13009966971,182.47964173312687,7606.298638140994,5579.867134078399,0.0,0.0,0.0,2019-03-17T21:19:08.037218,8,EyesOpen
-6868.847533327047,-3944.3229370502163,-2770.7445944243186,-6040.357773346636,23120.37624363616,816.1515970410821,7468.567188807391,5566.2996251940285,0.0,0.0,0.0,2019-03-17T21:19:08.045117,8,EyesOpen
-7147.730248895914,-4225.284364853426,-3071.8896474706708,-6329.052904731382,22849.65191479348,955.1347440641814,7192.076109895243,5301.9231917766565,0.0,0.0,0.0,2019-03-17T21:19:08.045636,8,EyesOpen
-7000.901639569001,-4079.8415636827426,-3016.814949132794,-6326.9741924970385,22918.629398182562,326.84955916995517,7282.667730172602,5265.892179714701,0.0,0.0,0.0,2019-03-17T21:19:08.051363,8,EyesOpen
-6714.620496585429,-3796.264981778262,-2721.7942740671965,-6054.752296775854,23188.906692136134,90.36810283280646,7554.800218915966,5507.760406465579,0.0,0.0,0.0,2019-03-17T21:19:08.058382,8,EyesOpen
-6825.865128739492,-3907.8001866102445,-2740.0780010316375,-6028.645459252055,23163.53746217936,684.2539530103151,7505.224049714095,5572.736927597157,0.0,0.0,0.0,2019-03-17T21:19:08.059098,8,EyesOpen
-7138.70014413597,-4218.377675816736,-3039.859597666216,-6306.142366664692,22889.035688523734,989.9140584366392,7219.613459064181,5328.2758984894635,0.0,0.0,0.0,2019-03-17T21:19:08.066375,8,EyesOpen
-7072.762497992814,-4151.769477339921,-3062.1666386326124,-6371.208294774091,22878.19509246291,433.35562149949334,7230.364648147184,5223.960307116546,0.0,0.0,0.0,2019-03-17T21:19:08.066848,8,EyesOpen
-6754.272491249143,-3829.792598461223,-2760.0828123191372,-6094.516050161845,23157.413084198604,54.94058787114476,7517.5622126534245,5450.986975549099,0.0,0.0,0.0,2019-03-17T21:19:08.074477,8,EyesOpen
-6775.283131037132,-3856.949967974421,-2695.978009221317,-5988.278208765771,23206.005776644444,566.7508324087659,7542.462055976636,5580.62709338988,0.006,1.006,0.264,2019-03-17T21:19:08.074903,8,EyesOpen
-7081.993768452856,-4170.813163615842,-2982.214448715979,-6238.997726320949,22935.482613501863,1009.4271313461222,7255.465657170494,5369.023128631488,0.0,0.0,0.0,2019-03-17T21:19:08.080923,8,EyesOpen
-7096.276533159797,-4172.668358405633,-3078.3940051071654,-6368.1237540392585,22853.742284028805,563.1745532959168,7189.975045916444,5212.493862210973,0.0,0.0,0.0,2019-03-17T21:19:08.081228,8,EyesOpen
-6767.169447799855,-3842.868368967577,-2792.4928417793326,-6119.5947074406995,23117.202295923507,62.942512386144685,7468.9024649742205,5408.2280884060965,0.0,0.0,0.0,2019-03-17T21:19:08.088983,8,EyesOpen
-6706.953848237258,-3789.0006648302874,-2661.064584382127,-5958.684499106944,23226.16705014313,443.7715344156664,7557.25891080605,5582.705805624224,0.0,0.0,0.0,2019-03-17T21:19:08.089395,8,EyesOpen
-7027.2543462818085,-4112.1621861651165,-2926.3350875777114,-6186.292312895336,22974.776980254293,990.7857764703962,7283.673558673091,5408.518661084016,0.0,0.0,0.0,2019-03-17T21:19:08.097100,8,EyesOpen
-7126.205518985453,-4205.88305066622,-3093.1908599365784,-6378.293797766423,22832.37401632953,685.0362640662509,7157.095629822687,5209.811652876336,0.0,0.0,0.0,2019-03-17T21:19:08.097732,8,EyesOpen
-6820.657172281405,-3898.7700818503004,-2853.826028564695,-6184.548876827822,23060.80884466277,92.7150360006137,7411.525536957448,5353.980404613067,0.0,0.0,0.0,2019-03-17T21:19:08.104036,8,EyesOpen
-6683.976254937203,-3760.7704115832344,-2653.8673226675182,-5960.003252029807,23243.288486395897,334.1809313512959,7582.7398994851,5581.3870527013605,0.0,0.0,0.0,2019-03-17T21:19:08.104698,8,EyesOpen
-6976.873514279547,-4050.8066476352988,-2873.696729385463,-6126.300230777291,23036.26662925084,954.5759504527987,7357.680184564613,5467.996653079588,0.0,0.0,0.0,2019-03-17T21:19:08.111222,8,EyesOpen
-7152.89350186509,-4217.260088593971,-3099.0917204727793,-6362.6699283921635,22836.799661731682,809.6472394045877,7169.724365439936,5239.450066024073,0.002,1.004,0.262,2019-03-17T21:19:08.111956,8,EyesOpen
-6887.690053902871,-3958.06925989023,-2914.9356979055046,-6226.32428721479,23023.526134911317,167.25810375906275,7381.551847642881,5326.733628122048,0.0,0.0,0.0,2019-03-17T21:19:08.119131,8,EyesOpen
-6674.7673362216165,-3751.0921062340867,-2666.5407617736773,-5967.379327700059,23258.577079603325,242.47172385117102,7606.879783496832,5575.374433442883,0.0,0.0,0.0,2019-03-17T21:19:08.127039,8,EyesOpen
-6907.60545821255,-3983.527896824825,-2818.376161858578,-6071.896084773074,23113.58131332175,898.0707404697824,7432.8043976789,5524.591270040425,0.0,0.0,0.0,2019-03-17T21:19:08.127692,8,EyesOpen
-7151.373583242129,-4229.039457921917,-3092.363845391732,-6353.282195720934,22865.52165335675,912.2640981989025,7183.716557468958,5262.204141879576,0.0,0.0,0.0,2019-03-17T21:19:08.133605,8,EyesOpen
-6946.586900542606,-4015.3120774402714,-2972.5808468557416,-6282.851848942262,22991.764306040324,261.4260031492714,7332.176844141108,5281.583104322327,0.0,0.0,0.0,2019-03-17T21:19:08.134247,8,EyesOpen
-6694.481574831197,-3763.430269173416,-2697.006189466261,-6015.122653856594,23242.349713128773,148.54969364997075,7576.861390693354,5523.09370316192,0.0,0.0,0.0,2019-03-17T21:19:08.141759,8,EyesOpen
-6859.504504144729,-3926.7768176528,-2771.415146757978,-6043.084686170183,23162.397523212137,783.2274774584148,7468.8130579964,5539.119903936375,0.0,0.0,0.0,2019-03-17T21:19:08.142704,8,EyesOpen
-7146.657365162059,-4218.489434539012,-3066.6369875236737,-6330.326954165334,22890.19797923541,960.7226801780082,7188.27631333784,5280.174944421643,0.0,0.0,0.0,2019-03-17T21:19:08.149533,8,EyesOpen
-7015.586735676138,-4089.5422207763463,-3028.16963531609,-6341.055791503882,22936.667255957993,342.62989075540196,7255.577415892771,5226.217833306531,0.0,0.0,0.0,2019-03-17T21:19:08.150445,8,EyesOpen
-6715.447511130275,-3788.196002029896,-2728.96918403735,-6064.095325958172,23211.68311973609,72.50905901301611,7530.928555837698,5464.487429200105,0.002,1.006,0.268,2019-03-17T21:19:08.156744,8,EyesOpen
-6808.96720993128,-3883.0791572426747,-2732.8583875725735,-6027.52787202929,23195.88043640619,644.1325717130389,7487.432061127671,5539.589290569937,0.0,0.0,0.0,2019-03-17T21:19:08.157390,8,EyesOpen
-7119.008257270844,-4196.584724972811,-3037.0656296093025,-6302.6778462741195,22915.746023147825,981.9121339216392,7195.384168074628,5303.756034821991,0.0,0.0,0.0,2019-03-17T21:19:08.164358,8,EyesOpen
-7062.078364143177,-4136.77145681041,-3074.884781227682,-6380.081937322848,22893.997775792814,454.61213047649034,7196.837031464223,5194.835984091281,0.0,0.0,0.0,2019-03-17T21:19:08.165063,8,EyesOpen
-6729.417351414842,-3807.776130172745,-2771.0351671022377,-6102.5179746768445,23180.547139709848,54.24768379303024,7496.9539042656315,5428.031733993499,0.0,0.0,0.0,2019-03-17T21:19:08.172314,8,EyesOpen
-6733.507720650163,-3820.0919413676193,-2693.8545934980625,-5987.2276767763715,23239.131061927208,533.714954103822,7538.7516663970555,5572.334596196962,0.0,0.0,0.0,2019-03-17T21:19:08.173264,8,EyesOpen
-7054.881102428568,-4138.939576022574,-2983.4884981499313,-6239.310650743324,22967.959698195424,1002.9898289429938,7253.163427491597,5370.63245423227,0.0,0.0,0.0,2019-03-17T21:19:08.179386,8,EyesOpen
-7108.905268777045,-4182.0113875879515,-3113.374485179721,-6401.494908511032,22860.492510854307,579.2454575592825,7165.298720037785,5192.846678834758,0.0,0.0,0.0,2019-03-17T21:19:08.186079,8,EyesOpen
-6781.0722328510565,-3855.7653255182895,-2832.8153887767066,-6156.720954980964,23125.89712451662,59.701509440125164,7451.356345576804,5385.339902083862,0.0,0.0,0.0,2019-03-17T21:19:08.186454,8,EyesOpen
-6704.763377280638,-3771.4768971773265,-2672.9557124323505,-5964.697118365421,23264.924975028633,423.8114266170772,7583.522210541036,5590.081881294475,0.0,0.0,0.0,2019-03-17T21:19:08.193368,8,EyesOpen
-7018.917145599979,-4083.1719736065834,-2921.641221242097,-6169.439097576034,23026.32010296823,995.2561253614576,7326.275983604906,5432.211510206641,0.0,1.01,0.266,2019-03-17T21:19:08.193749,8,EyesOpen
-7141.695277892981,-4205.97245764404,-3103.2044414525562,-6380.953655356605,22865.968688245855,717.222776081893,7173.591217230704,5214.103187811755,0.0,0.0,0.0,2019-03-17T21:19:08.203054,8,EyesOpen
-6843.098323714534,-3906.9061168320322,-2870.90276132855,-6194.383644388157,23091.073106655254,112.63044031029229,7419.259240538984,5348.504227221516,0.0,0.0,0.0,2019-03-17T21:19:08.203410,8,EyesOpen
-6681.003472924647,-3747.5828823546035,-2657.5330087581883,-5964.048917776217,23282.113466514766,309.92928861728774,7595.033358935519,5572.021671774587,0.0,0.0,0.0,2019-03-17T21:19:08.209628,8,EyesOpen
-6947.391563342997,-4015.2450222069056,-2851.7249645858965,-6110.475195702934,23094.47057181246,946.1269910486926,7378.512010396959,5474.1433828047975,0.0,0.0,0.0,2019-03-17T21:19:08.210008,8,EyesOpen
-7142.634051160104,-4210.331047812825,-3096.8341942827933,-6363.83221910384,22875.177606961443,830.4343617480233,7163.130600825621,5226.821330406825,0.0,0.0,0.0,2019-03-17T21:19:08.216599,8,EyesOpen
-6920.4800630188065,-3983.6620072915566,-2954.0736024467474,-6268.971415635517,23013.758422584346,156.19399025368574,7329.002896428454,5270.340176861308,0.0,0.0,0.0,2019-03-17T21:19:08.217351,8,EyesOpen
-6690.234743384689,-3757.015318514743,-2687.6855120283976,-6004.215002562404,23254.151434201176,184.1560225672749,7563.137419597795,5521.797301983512,0.0,0.0,0.0,2019-03-17T21:19:08.224466,8,EyesOpen
-6895.781385395692,-3965.333576838205,-2806.730902997363,-6077.10404123116,23134.39078740964,843.2866148098249,7417.649914938202,5501.859545929378,0.0,0.0,0.0,2019-03-17T21:19:08.225115,8,EyesOpen
-7131.681696377003,-4207.1347483557165,-3074.8624294832266,-6342.553358382387,22893.751906603804,914.1416447331483,7174.015900375355,5254.582197020316,0.0,0.0,0.0,2019-03-17T21:19:08.232556,8,EyesOpen
-6964.4459443623955,-4044.0787725542514,-2994.887887822138,-6312.311448134357,22981.437800101972,256.53097111355913,7285.618160440703,5239.383010790707,0.004,1.01,0.27,2019-03-17T21:19:08.233217,8,EyesOpen
-6690.949999207259,-3776.774260613234,-2703.4658436138448,-6035.149816888549,23247.669428309135,113.12217868830905,7551.939195625687,5491.689502202214,0.0,0.0,0.0,2019-03-17T21:19:08.238725,8,EyesOpen
-6839.611451579506,-3925.8603961301324,-2763.994367598816,-6050.237244395882,23183.430514744585,732.4666658004124,7457.883054957754,5522.020819428065,0.0,0.0,0.0,2019-03-17T21:19:08.245910,8,EyesOpen
-7138.186054013498,-4220.6352020067225,-3060.400850820643,-6335.713724579064,22908.995796322324,953.4360114855781,7173.255941063874,5270.250769883486,0.0,0.0,0.0,2019-03-17T21:19:08.246504,8,EyesOpen
-7026.3155730146855,-4105.523718061891,-3039.3231557992885,-6363.228722003547,22939.617686226095,354.7445362501784,7230.029371980354,5202.994370817468,0.0,0.0,0.0,2019-03-17T21:19:08.253941,8,EyesOpen
-6702.416444112831,-3783.8150601166562,-2724.2753177017353,-6070.331462661203,23233.386663602196,66.18351533216422,7532.6496401607565,5457.156057018764,0.0,0.0,0.0,2019-03-17T21:19:08.254399,8,EyesOpen
-6768.845828634004,-3852.680784783457,-2703.197622680381,-6006.561935730211,23241.388588117195,626.8323215046313,7521.831395844388,5555.950767511221,0.0,0.0,0.0,2019-03-17T21:19:08.261971,8,EyesOpen
-7086.30765513273,-4174.300035750871,-3010.914088596593,-6283.321235575823,22958.482558546373,998.0277416739157,7229.515281857883,5322.307982719896,0.0,0.0,0.0,2019-03-17T21:19:08.262649,8,EyesOpen
-7078.7304137623805,-4161.7607071114435,-3094.8001855373604,-6403.953600401116,22893.304871714696,474.5051830417136,7187.829278448735,5175.7252425819925,0.0,0.0,0.0,2019-03-17T21:19:08.269243,8,EyesOpen
-6747.745781868194,-3819.4437407784158,-2785.3849870425447,-6126.613155199666,23178.446075731048,47.810381389901806,7490.024863484486,5401.857841236334,0.0,0.0,0.0,2019-03-17T21:19:08.269811,8,EyesOpen
-6718.286182676099,-3794.9238771109435,-2675.4814595558,-5979.918656339486,23270.98229777602,509.30684915862673,7561.684556208201,5572.133430496863,0.008,1.01,0.268,2019-03-17T21:19:08.276609,8,EyesOpen
-7031.188253305942,-4115.045561199851,-2954.341823380211,-6221.943345301551,23007.678748092505,1012.8469482477842,7279.292616759851,5381.473050293094,0.0,0.0,0.0,2019-03-17T21:19:08.277148,8,EyesOpen
-7099.338722150174,-4179.284474764404,-3097.9517815055588,-6391.950713628616,22885.973499533357,623.4125046029693,7173.479458508427,5192.556106156839,0.0,0.0,0.0,2019-03-17T21:19:08.284648,8,EyesOpen
-6781.563971229073,-3852.680784783457,-2826.959231729416,-6154.530484024344,23144.87375555918,84.10961438532048,7455.446714812126,5375.773355456991,0.0,0.0,0.0,2019-03-17T21:19:08.285194,8,EyesOpen
-6680.914065946826,-3754.914254535944,-2660.461087281834,-5962.640757875533,23290.405963707683,392.83190880202164,7582.963416929653,5574.614474131403,0.0,0.0,0.0,2019-03-17T21:19:08.291753,8,EyesOpen
-6975.040671234211,-4057.713336671989,-2903.312790788745,-6163.582940528744,23062.731094685925,976.5253635079102,7330.567518540325,5428.434065393694,0.0,0.0,0.0,2019-03-17T21:19:08.292302,8,EyesOpen
-7126.943126552478,-4201.7926814308985,-3108.501804888464,-6390.743719428029,22882.084295998135,740.1556658930381,7160.470743235439,5201.630914405694,0.0,0.0,0.0,2019-03-17T21:19:08.298299,8,EyesOpen
-6852.620166852495,-3928.0732188312077,-2900.5188227318317,-6228.045371537849,23083.786437962823,108.83064375289008,7385.731623856023,5311.534441892439,0.0,0.0,0.0,2019-03-17T21:19:08.306086,8,EyesOpen
-6683.171592136811,-3757.238835959296,-2675.190886877881,-5989.664016921999,23287.23201599503,263.728232828168,7575.699099981678,5544.640784816836,0.0,0.0,0.0,2019-03-17T21:19:08.306545,8,EyesOpen
-6932.5723567691275,-4004.784405801822,-2851.7696680748068,-6117.806567884275,23120.62211282517,914.5216243888884,7383.876429066233,5472.17642929273,0.0,0.0,0.0,2019-03-17T21:19:08.314203,8,EyesOpen
-7131.3240684657185,-4211.046303635395,-3092.721473303017,-6372.504695952499,22906.045366054223,852.0708503807606,7173.300644552785,5231.537548486895,0.006,1.01,0.27,2019-03-17T21:19:08.314720,8,EyesOpen
-6908.723045435316,-3990.322827139238,-2946.049326187292,-6280.795488452374,23048.582440445716,190.05688310347594,7337.7647802549345,5272.66475828466,0.0,0.0,0.0,2019-03-17T21:19:08.321302,8,EyesOpen
-6669.827600696994,-3757.4176499149385,-2677.6048752790543,-6013.245107322348,23292.328213730838,174.54477245149286,7575.900265681776,5522.624316528359,0.0,0.0,0.0,2019-03-17T21:19:08.321839,8,EyesOpen
-6866.165323992411,-3947.8545126741546,-2786.9719608988717,-6063.20125617996,23185.866854890213,837.8774926516405,7448.115342630786,5517.773987981557,0.0,0.0,0.0,2019-03-17T21:19:08.328858,8,EyesOpen
-7135.637955145593,-4200.250411063482,-3069.9673974475145,-6338.932375780628,22931.593409966637,946.5740259377988,7190.735005227924,5265.9368832036125,0.0,0.0,0.0,2019-03-17T21:19:08.329352,8,EyesOpen
-6966.681118807926,-4033.126417771151,-2994.1055767662024,-6310.232735900014,23012.394966172575,308.18585254977376,7297.978675124487,5249.284833584408,0.0,0.0,0.0,2019-03-17T21:19:08.336743,8,EyesOpen
-6687.396071838864,-3762.9385307953994,-2699.0401982116937,-6031.998220920351,23279.07362926884,117.30195490145147,7567.473658022125,5496.651589471292,0.0,0.0,0.0,2019-03-17T21:19:08.337189,8,EyesOpen
-6825.261631639199,-3904.447424941948,-2742.0896580326153,-6030.7241714863985,23231.397358345668,722.4307325399795,7493.221162941595,5539.164607425286,0.0,0.0,0.0,2019-03-17T21:19:08.344055,8,EyesOpen
-7147.685545407003,-4220.903422940186,-3058.3221385862994,-6331.690410577108,22938.321285047685,965.3941947691674,7188.812755204768,5271.591874550805,0.0,0.0,0.0,2019-03-17T21:19:08.344559,8,EyesOpen
-7045.627480224071,-4114.442064099559,-3052.6447954946516,-6366.939111583128,22956.292087589754,397.1681472263512,7234.3432586602285,5197.920524826112,0.0,0.0,0.0,2019-03-17T21:19:08.351686,8,EyesOpen
-6715.045179730079,-3790.364121242061,-2742.3578789660787,-6079.540381376789,23248.809367276357,66.00470137652175,7535.44360821767,5441.129856244309,0.006,1.008,0.264,2019-03-17T21:19:08.352269,8,EyesOpen
-6749.064534791057,-3832.9888979183315,-2691.9770469638165,-5988.6134849326,23284.058068282375,606.4922340503018,7549.100524079862,5560.219950702185,0.0,0.0,0.0,2019-03-17T21:19:08.358540,8,EyesOpen
-7075.936445705467,-4165.336986224293,-2992.920934310071,-6262.020023109916,22999.609768344137,1009.0918551792927,7252.3587646912065,5330.019334556978,0.0,0.0,0.0,2019-03-17T21:19:08.359032,8,EyesOpen
-7070.661434014015,-4158.452648932058,-3074.728319016495,-6382.518277468476,22935.035578612755,529.1328464904841,7212.662066538581,5186.11880375371,0.0,0.0,0.0,2019-03-17T21:19:08.366584,8,EyesOpen
-6755.971223827747,-3832.9218426849657,-2794.12451912457,-6132.849291902697,23195.612215472727,48.30211976791856,7522.636058644779,5384.177611372186,0.0,0.0,0.0,2019-03-17T21:19:08.373546,8,EyesOpen
-6727.338639180499,-3794.745063155301,-2684.95859920485,-5986.2889035092485,23286.829684594835,464.1116218699959,7608.064425952963,5549.736982552646,0.0,0.0,0.0,2019-03-17T21:19:08.374112,8,EyesOpen
-7048.913186659001,-4115.134968177673,-2949.0668116887587,-6209.001685261927,23041.094606053186,996.0607881618487,7341.139893667686,5375.460431034617,0.0,0.0,0.0,2019-03-17T21:19:08.381471,8,EyesOpen
-7139.79537961428,-4210.085178623817,-3113.843871813282,-6398.164498587192,22903.139639275032,640.2657199222708,7221.468653853972,5172.8418675472585,0.0,0.0,0.0,2019-03-17T21:19:08.382250,8,EyesOpen
-6822.5123670711955,-3896.847831827144,-2858.8775228115946,-6187.991045473939,23145.320790448284,70.16212584520888,7487.7449855500445,5335.495511948528,0.0,0.0,0.0,2019-03-17T21:19:08.389237,8,EyesOpen
-6679.237685112677,-3752.0979347345756,-2650.9168923994175,-5960.5173421522795,23329.588571737837,366.65801604485705,7655.494827687125,5573.027500275076,0.0,0.0,0.0,2019-03-17T21:19:08.389880,8,EyesOpen
-6977.85699103558,-4055.3887552486367,-2880.961046333438,-6146.483856020433,23111.793173765323,971.04918611636,7415.548850959403,5443.342678945384,0.004,1.006,0.256,2019-03-17T21:19:08.397316,8,EyesOpen
-7144.690411649992,-4228.212443377071,-3116.3249154478212,-6395.974027630571,22906.715918387883,758.6852620464877,7216.215993906974,5192.1537747566435,0.0,0.0,0.0,2019-03-17T21:19:08.397947,8,EyesOpen
-6865.137143747466,-3940.59019572618,-2908.8336716692056,-6238.237767009469,23104.171228906063,125.43798988318323,7438.23587158154,5290.590857337816,0.0,0.0,0.0,2019-03-17T21:19:08.403954,8,EyesOpen
-6670.3640425639205,-3746.0406119871873,-2655.2084273348364,-5981.550333684723,23322.81599316788,244.79630527452295,7650.0410020400295,5534.895424234322,0.0,0.0,0.0,2019-03-17T21:19:08.404594,8,EyesOpen
-6925.688019476894,-4000.2693534218497,-2822.354772371623,-6098.807585097264,23157.614249898703,891.8346037667518,7458.5089038025035,5464.733298389113,0.0,0.0,0.0,2019-03-17T21:19:08.412133,8,EyesOpen
-7139.6612691475475,-4217.260088593971,-3078.4163568516205,-6358.490152179022,22928.039482598244,868.3429203442241,7230.4093516360945,5212.382103488696,0.0,0.0,0.0,2019-03-17T21:19:08.412942,8,EyesOpen
-6919.60834498505,-3993.899106252087,-2946.6528232875853,-6275.162848849636,23062.060542352265,210.0616943909758,7388.860868079766,5243.138103859199,0.0,0.0,0.0,2019-03-17T21:19:08.419937,8,EyesOpen
-6656.8635889129155,-3734.685925803891,-2651.453334266345,-5987.294732009737,23326.861658914288,161.62546415632536,7653.147894519317,5507.782758210034,0.0,0.0,0.0,2019-03-17T21:19:08.420652,8,EyesOpen
-6836.884538755959,-3912.9634395794205,-2747.8787598465397,-6030.5453575307565,23231.889096723688,811.7035998944759,7533.29784074996,5511.493147789615,0.0,0.0,0.0,2019-03-17T21:19:08.428535,8,EyesOpen
-7118.225946214909,-4196.651780206177,-3045.9616239025145,-6317.720570292541,22960.24834635834,952.0725550738043,7258.5278461608705,5248.547226017383,0.0,0.0,0.0,2019-03-17T21:19:08.434436,8,EyesOpen
-6978.751060813793,-4053.0194703363745,-2997.0560070343026,-6316.267706902946,23017.35705344165,321.61925096741334,7338.8823674776995,5207.688237153082,0.002,1.01,0.258,2019-03-17T21:19:08.435357,8,EyesOpen
-6680.645845013362,-3759.1610859824523,-2701.454186612867,-6037.809674478731,23290.405963707683,99.30880061492928,7617.250992924094,5455.3008622289735,0.0,0.0,0.0,2019-03-17T21:19:08.443529,8,EyesOpen
-6786.257837564688,-3869.913979758499,-2713.4347216409114,-6002.4939182393455,23271.40698092067,703.387046264058,7578.671881994233,5533.599023055915,0.0,0.0,0.0,2019-03-17T21:19:08.444221,8,EyesOpen
-7101.462137873428,-4183.218381788538,-3007.695437395029,-6274.224075582514,23001.64377708957,1013.6516110481753,7299.699759447546,5299.665665586671,0.0,0.0,0.0,2019-03-17T21:19:08.450120,8,EyesOpen
-7042.051201111222,-4116.2078519115275,-3029.7119056835063,-6344.453256661089,22994.73708805288,456.78024968865515,7314.451910788049,5198.769891115415,0.0,0.0,0.0,2019-03-17T21:19:08.451309,8,EyesOpen
-6729.685572348306,-3802.299952781195,-2732.6348701280203,-6082.446108155979,23269.685896597613,72.17378284618651,7596.620332791846,5421.661486823737,0.0,0.0,0.0,2019-03-17T21:19:08.456791,8,EyesOpen
-6761.022718074646,-3842.488389311837,-2685.7632620052414,-5994.223772790882,23309.382594750237,572.3164167781373,7610.366655631859,5539.499883592115,0.0,0.0,0.0,2019-03-17T21:19:08.457452,8,EyesOpen
-7078.283378873275,-4164.912303079642,-2975.7100910794848,-6248.720735159009,23043.218021776443,1012.1093406807591,7329.047599917365,5327.0465525444215,0.0,0.0,0.0,2019-03-17T21:19:08.464413,8,EyesOpen
-7099.4504808724505,-4181.16202129865,-3079.4445370965645,-6389.872001394272,22955.330962578173,557.7877828821878,7264.965148564,5164.191742443054,0.0,0.0,0.0,2019-03-17T21:19:08.465072,8,EyesOpen
-6777.406546760386,-3850.8926452270325,-2794.035112146749,-6142.058210618283,23218.96978842852,64.06009960891004,7549.547558968969,5363.658709962215,0.0,0.0,0.0,2019-03-17T21:19:08.472442,8,EyesOpen
-6713.2346884292,-3796.4437957339046,-2659.7011279703534,-5969.681557378955,23338.261048586493,453.29337755362724,7649.504560173102,5550.005203486109,0.006,1.006,0.264,2019-03-17T21:19:08.473112,8,EyesOpen
-7023.722770657871,-4114.57617456629,-2919.8307299412168,-6188.907466996607,23091.60954852218,1000.9558201975609,7384.2564087219735,5377.069756635399,0.0,0.0,0.0,2019-03-17T21:19:08.479648,8,EyesOpen
-7122.204556727953,-4208.028818133929,-3083.4454993540644,-6381.69126292363,22947.77607295228,691.6300286805664,7253.118724002687,5169.69027157906,0.0,0.0,0.0,2019-03-17T21:19:08.480340,8,EyesOpen
-6812.565840788584,-3897.965419049909,-2847.1428569725585,-6185.733519283953,23174.40040998464,94.05614066793213,7500.999570012042,5308.114624990777,0.0,0.0,0.0,2019-03-17T21:19:08.487469,8,EyesOpen
-6672.308644331532,-3751.337975423095,-2650.9839476327834,-5966.932292810952,23349.883955703255,332.43749528378197,7662.759144635099,5526.4464648302155,0.0,0.0,0.0,2019-03-17T21:19:08.493815,8,EyesOpen
-6956.846351247591,-4027.1808537460392,-2858.9222263005054,-6128.893033134107,23151.691037618046,958.1969330545585,7438.504092515003,5414.844204764868,0.0,0.0,0.0,2019-03-17T21:19:08.494906,8,EyesOpen
-7137.493149935383,-4210.6439722352,-3089.5698773348186,-6376.148030298714,22947.396093296542,801.2876869783029,7242.211072708496,5170.9643210130125,0.0,0.0,0.0,2019-03-17T21:19:08.501783,8,EyesOpen
-6890.081690559589,-3956.0799546337075,-2914.8462909276836,-6251.827627638296,23114.542438333327,149.13083900580872,7437.006525636498,5241.662888725149,0.0,0.0,0.0,2019-03-17T21:19:08.502446,8,EyesOpen
-6685.2279526267,-3752.0308795012093,-2671.0111106647387,-6005.354941529625,23335.24356308503,218.10832239488633,7649.415153195281,5478.770193907046,0.0,0.0,0.0,2019-03-17T21:19:08.509009,8,EyesOpen
-6908.834804157592,-3992.1780219290285,-2816.5656705576985,-6106.183660767515,23195.612215472727,870.7122052564866,7484.213409926107,5431.608013106348,0.0,0.0,0.0,2019-03-17T21:19:08.509922,8,EyesOpen
-7153.027612331822,-4240.2376818940265,-3094.621371581718,-6380.372510000767,22950.100654375634,882.8044990068078,7236.24315693893,5174.585303614772,0.008,0.996,0.262,2019-03-17T21:19:08.517044,8,EyesOpen
-6944.061153419156,-4019.3130396977713,-2965.942378752515,-6297.671055516131,23079.09257162721,245.39980237481623,7392.459498937071,5206.905926097146,0.0,0.0,0.0,2019-03-17T21:19:08.517690,8,EyesOpen
-6666.4301355397865,-3744.7665625532345,-2664.8867326839845,-6003.790319417753,23346.978228924065,158.60797865485893,7662.826199868465,5473.2046095376745,0.0,0.0,0.0,2019-03-17T21:19:08.524664,8,EyesOpen
-6828.949669474325,-3914.840986113666,-2750.5386174367213,-6038.234357623382,23258.286506925408,787.5190123938337,7548.854654890854,5483.665225942758,0.0,0.0,0.0,2019-03-17T21:19:08.525307,8,EyesOpen
-7117.577745625705,-4196.696483695088,-3043.2347110789674,-6314.1219394352365,22992.45721011844,974.3348925512902,7279.471430715494,5234.800903177369,0.0,0.0,0.0,2019-03-17T21:19:08.532667,8,EyesOpen
-7004.612029148582,-4078.343996804237,-3011.539937441342,-6324.001410484482,23036.981885073412,359.10312641896326,7347.532492581903,5183.593056630261,0.0,0.0,0.0,2019-03-17T21:19:08.533622,8,EyesOpen
-6700.248324900666,-3770.7616413547566,-2708.070302971638,-6035.261575610826,23319.50793498849,100.80636749343485,7635.847644310909,5439.207606221153,0.0,0.0,0.0,2019-03-17T21:19:08.539189,8,EyesOpen
-6781.318102040065,-3858.3357761306497,-2704.6951895588863,-5979.628083661567,23314.076461085853,687.6514181675218,7606.589210818913,5532.928470722255,0.0,0.0,0.0,2019-03-17T21:19:08.539938,8,EyesOpen
-7087.000559210845,-4168.9803205705075,-3004.8344141047496,-6249.748915403952,23040.759329886358,1027.6885065661081,7317.9834864119875,5298.883354530734,0.0,0.0,0.0,2019-03-17T21:19:08.546195,8,EyesOpen
-7040.44187551044,-4114.419712355103,-3047.012155891914,-6333.322087922345,23015.054823762755,496.1640234189062,7314.921297421611,5183.213076974521,0.0,0.0,0.0,2019-03-17T21:19:08.554105,8,EyesOpen
-6719.2026041987665,-3795.2591532777733,-2747.454076701889,-6063.782401535797,23294.965719576565,93.20677437863046,7607.572687574946,5407.490480839072,0.008,1.008,0.258,2019-03-17T21:19:08.554964,8,EyesOpen
-6729.7079240927615,-3803.7081126818794,-2675.392052577979,-5950.302594936204,23358.109397662807,573.165783067439,7649.2810427285485,5548.217063929685,0.0,0.0,0.0,2019-03-17T21:19:08.562068,8,EyesOpen
-7047.147398847032,-4128.143683450661,-2969.6080648431857,-6208.577002117277,23088.32384208725,1036.182169459125,7359.8930072656885,5334.780256125958,0.0,0.0,0.0,2019-03-17T21:19:08.562900,8,EyesOpen
-7081.882009730579,-4158.6314628877,-3089.2793046569,-6361.887617336228,22990.08792520618,614.4718068208465,7278.555009192826,5158.693213307049,0.0,0.0,0.0,2019-03-17T21:19:08.568821,8,EyesOpen
-6758.027584317635,-3834.106485141097,-2811.60358328862,-6124.176815054037,23251.223355677528,92.29035285596287,7560.678727707712,5343.273919018975,0.0,0.0,0.0,2019-03-17T21:19:08.569464,8,EyesOpen
-6699.108385933446,-3780.037615303709,-2677.1801921344036,-5962.484295664346,23365.127845421775,428.4605894637811,7658.981699822152,5517.595174025914,0.0,0.0,0.0,2019-03-17T21:19:08.576809,8,EyesOpen
-7006.199003004909,-4085.7200724744885,-2930.112532390658,-6174.22237088947,23123.52783960436,997.2454306179799,7397.041606550409,5358.450753504128,0.0,0.0,0.0,2019-03-17T21:19:08.577697,8,EyesOpen
-7114.292039190775,-4199.35634128527,-3111.4522351565643,-6377.0421000769265,22962.818796970703,731.4608372999236,7252.492875157938,5147.852617246225,0.0,0.0,0.0,2019-03-17T21:19:08.584993,8,EyesOpen
-6813.214041377788,-3897.0489975272417,-2875.5295724307985,-6187.275789651369,23189.890168892165,128.63428934029216,7504.553497380436,5287.103985202788,0.0,0.0,0.0,2019-03-17T21:19:08.585797,8,EyesOpen
-6665.9607489062255,-3742.1290567075084,-2664.3055873281464,-5963.490124164835,23376.594290327346,318.6464689548575,7681.534609977557,5512.029589656543,0.0,0.0,0.0,2019-03-17T21:19:08.592169,8,EyesOpen
-6937.646202760483,-4018.038990263819,-2856.1059064991364,-6109.514070691356,23190.560721225826,955.0006335974496,7471.584674308858,5421.013286234533,0.006,1.01,0.262,2019-03-17T21:19:08.592838,8,EyesOpen
-7141.091780792687,-4215.1143211262615,-3095.0237029819136,-6364.480419693044,22971.96066045292,843.8677601656628,7260.025413039376,5175.88170479318,0.0,0.0,0.0,2019-03-17T21:19:08.599525,8,EyesOpen
-6893.702673161349,-3961.8690564476324,-2926.7150672334515,-6247.536092702877,23135.083691487755,195.33189479492842,7448.785894964444,5242.80282769237,0.0,0.0,0.0,2019-03-17T21:19:08.600166,8,EyesOpen
-6666.340728561965,-3741.011469484743,-2666.7642792182305,-5982.377348229569,23372.19099666965,221.95282244119915,7677.824220397976,5494.505822003583,0.0,0.0,0.0,2019-03-17T21:19:08.606505,8,EyesOpen
-6879.084632287578,-3961.9361116809982,-2795.4432720474333,-6058.417982866524,23244.227259663017,877.440080337534,7518.903317320743,5470.164772291752,0.0,0.0,0.0,2019-03-17T21:19:08.607195,8,EyesOpen
-7119.455292159951,-4201.658570964167,-3063.8430194667603,-6323.733189551019,22999.0286229883,942.4836567024776,7274.621102168692,5226.7319234290035,0.0,0.0,0.0,2019-03-17T21:19:08.615408,8,EyesOpen
-6932.907632935958,-4010.8193768047545,-2970.6362450881297,-6280.8401919412845,23096.14695264661,292.5619831755141,7398.4050629621825,5225.346115272774,0.0,0.0,0.0,2019-03-17T21:19:08.621480,8,EyesOpen
-6656.640071468362,-3726.1922629108744,-2671.3910903204787,-5991.027473333773,23372.727438536578,159.59145541089242,7676.237246541649,5490.907191146278,0.0,0.0,0.0,2019-03-17T21:19:08.622262,8,EyesOpen
-6806.977904674757,-3877.066537984197,-2727.292803203202,-6003.052711850729,23313.785888407932,786.5578873822556,7593.334626356916,5528.56988055347,0.0,0.0,0.0,2019-03-17T21:19:08.628992,8,EyesOpen
-7101.305675662241,-4178.882143364209,-3032.5058737404197,-6293.737148491997,23034.165565272044,1001.8722417202284,7306.472338017505,5270.496639072495,0.0,0.0,0.0,2019-03-17T21:19:08.629641,8,EyesOpen
-6991.156278986487,-4066.877551898665,-3005.92964958306,-6311.283267889413,23070.576556989738,416.7035718802896,7369.034870747909,5214.304353511853,0.0,0.0,0.0,2019-03-17T21:19:08.636972,8,EyesOpen
-6693.2522288861555,-3774.0026443007764,-2706.5503843486767,-6034.300450599248,23345.123034134274,110.93170773168895,7651.6279758963565,5454.69736512868,0.004,1.006,0.258,2019-03-17T21:19:08.637615,8,EyesOpen
-6777.160677571378,-3864.370747133583,-2706.05864597066,-5989.798127388732,23334.684769473646,648.2676444372707,7617.608620835379,5537.376467868861,0.0,0.0,0.0,2019-03-17T21:19:08.644371,8,EyesOpen
-7076.316425361208,-4155.837494830786,-2992.4515476765096,-6248.608976436732,23067.067333110255,1034.6846025806192,7331.215719129529,5323.962011809589,0.0,0.0,0.0,2019-03-17T21:19:08.645207,8,EyesOpen
-7043.772285434281,-4118.24186065696,-3043.011193634414,-6344.632070616731,23024.46490817844,531.3456691915595,7309.6462857301585,5204.179013273599,0.0,0.0,0.0,2019-03-17T21:19:08.651823,8,EyesOpen
-6715.2686971746325,-3788.911257852466,-2748.750477880297,-6079.026291254318,23300.352489990295,91.1057103998316,7603.571725317446,5422.890832768779,0.0,0.0,0.0,2019-03-17T21:19:08.652481,8,EyesOpen
-6702.148223179367,-3779.724690881335,-2654.5602267456325,-5949.207359457893,23377.443656616648,536.844198327565,7660.523970189568,5577.810773588511,0.0,0.0,0.0,2019-03-17T21:19:08.659835,8,EyesOpen
-7025.287392769742,-4098.393511580648,-2930.24664285739,-6188.393376874134,23113.044871454822,1031.309489167868,7377.148553985186,5387.731538740581,0.0,0.0,0.0,2019-03-17T21:19:08.660479,8,EyesOpen
-7087.671111544503,-4154.339927952281,-3066.793449734861,-6351.538759653421,22994.044183974765,646.6583188364887,7274.084660301764,5207.352960986253,0.0,0.0,0.0,2019-03-17T21:19:08.667767,8,EyesOpen
-6767.974110600247,-3833.145360129519,-2801.7464639838295,-6123.059227831272,23244.383721874205,96.96186744712203,7547.3794397568045,5385.429309061684,0.0,0.0,0.0,2019-03-17T21:19:08.668452,8,EyesOpen
-6648.504036486631,-3725.298193132662,-2628.2745752661917,-5922.318210878159,23398.789572571466,415.3177637240605,7683.121583833884,5598.933172098777,0.0,0.0,0.0,2019-03-17T21:19:08.674871,8,EyesOpen
-6954.320604124142,-4029.2819177248384,-2874.5907991636755,-6120.980515596929,23171.36057273872,1004.822671988329,7429.295173799417,5454.742068617591,0.0,1.006,0.262,2019-03-17T21:19:08.682608,8,EyesOpen
-7109.352303666152,-4183.933637611108,-3082.104394686746,-6350.376468941745,22987.53982633827,769.704672062954,7255.3538984482175,5225.36846701723,0.0,0.0,0.0,2019-03-17T21:19:08.683258,8,EyesOpen
-6832.704762542816,-3905.0285702977862,-2874.143764274569,-6189.220391418981,23189.241968302962,137.59733886687027,7477.083203444863,5335.182587526154,0.0,0.0,0.0,2019-03-17T21:19:08.689348,8,EyesOpen
-6649.353402775932,-3722.4818733312936,-2643.0937818400603,-5941.585414598634,23397.336709181873,296.40648322182693,7672.906836617808,5575.620302631892,0.0,0.0,0.0,2019-03-17T21:19:08.690198,8,EyesOpen
-6901.592838954072,-3971.88263796361,-2821.348943871134,-6070.2867591722925,23225.094166409275,945.5234939483994,7476.435002855659,5500.719606962158,0.0,0.0,0.0,2019-03-17T21:19:08.697548,8,EyesOpen
-7111.118091478121,-4177.92101835263,-3071.5767230482966,-6330.326954165334,23002.26962593432,877.3953768486234,7256.851465326723,5253.822237708836,0.0,0.0,0.0,2019-03-17T21:19:08.698418,8,EyesOpen
-6890.46167021533,-3962.9866436703974,-2930.693677746496,-6240.249424010447,23144.985514281456,215.82844446044498,7422.768464418467,5293.988322495023,0.0,0.0,0.0,2019-03-17T21:19:08.704006,8,EyesOpen
-6654.8072284230275,-3728.4050856119497,-2662.785668705186,-5968.653377134011,23391.525255623492,199.7351884526239,7664.8378568694425,5544.774895283567,0.0,0.0,0.0,2019-03-17T21:19:08.704925,8,EyesOpen
-6852.664870341405,-3926.910928119532,-2781.942818396428,-6035.552148288745,23277.531358901426,846.9299491560399,7525.96646856862,5530.693296276724,0.0,0.0,0.0,2019-03-17T21:19:08.712113,8,EyesOpen
-7112.727417078903,-4189.275704535926,-3069.3862520916764,-6315.172471424637,23019.145192998076,948.4515724720446,7264.9204450750885,5273.245903640497,0.0,0.0,0.0,2019-03-17T21:19:08.712817,8,EyesOpen
-6940.194301628388,-4009.947658770998,-2987.8694400631716,-6279.141459362681,23109.178019664054,320.0546288555418,7380.769536586945,5265.266330869953,-0.002,1.0,0.272,2019-03-17T21:19:08.719981,8,EyesOpen
-6655.522484245597,-3729.4109141124386,-2695.8438987545846,-5998.694121681943,23380.14821769574,133.2387486980854,7654.8019236090095,5519.070389159964,0.0,0.0,0.0,2019-03-17T21:19:08.720635,8,EyesOpen
-6797.2101923477885,-3871.210380936907,-2749.6892511474193,-6002.918601383996,23324.22415306856,728.5327587762785,7572.21222784665,5557.8506657899225,0.0,0.0,0.0,2019-03-17T21:19:08.727360,8,EyesOpen
-7090.621541812604,-4181.184373043105,-3045.9392721580593,-6281.488392530488,23057.210213805465,995.5690497838319,7293.195401811052,5314.618982627271,0.0,0.0,0.0,2019-03-17T21:19:08.728060,8,EyesOpen
-7002.734482614337,-4089.5645725208014,-3050.789600704861,-6331.042209987904,23073.32582155774,419.25167074819456,7329.092303406275,5233.370391532229,0.0,0.0,0.0,2019-03-17T21:19:08.733575,8,EyesOpen
-6690.167688151323,-3765.5089814077596,-2748.0128703132714,-6052.248901396859,23359.60696454131,82.72380622909144,7622.41424589327,5474.9703973496435,0.0,0.0,0.0,2019-03-17T21:19:08.741631,8,EyesOpen
-6732.0548572605685,-3807.9325923839324,-2701.0071517237607,-5967.178161999961,23389.692412578155,618.3163068671593,7629.924432030253,5595.334541241472,0.0,0.0,0.0,2019-03-17T21:19:08.742605,8,EyesOpen
-7055.73046871787,-4138.91722427812,-3001.347541969722,-6237.3436972312575,23109.356833619695,1024.112227453259,7337.630669788203,5369.514867009505,0.0,0.0,0.0,2019-03-17T21:19:08.749497,8,EyesOpen
-7055.305785573219,-4139.364259167225,-3093.012045980936,-6362.4017074587,23033.27149549383,541.2027884963499,7283.606503439725,5219.087626825289,0.0,0.0,0.0,2019-03-17T21:19:08.750365,8,EyesOpen
-6732.412485171853,-3807.3514470280943,-2800.897097694528,-6105.11077703366,23305.94042610412,70.38564328976194,7571.16169585725,5430.222204950119,0.0,0.0,0.0,2019-03-17T21:19:08.756560,8,EyesOpen
-6701.500022590163,-3783.725653138835,-2690.9488667188725,-5955.063516505184,23401.62824411729,485.32342735808226,7644.98950779313,5597.502660453637,0.004,0.994,0.27,2019-03-17T21:19:08.757295,8,EyesOpen
-7005.841375093624,-4085.742424218944,-2954.3194716357557,-6173.238894133437,23158.10598827672,1021.1394454407032,7378.646120863691,5427.472940382117,0.0,0.0,0.0,2019-03-17T21:19:08.764160,8,EyesOpen
-7099.584591339182,-4167.527457180912,-3117.8224823263267,-6366.134448782736,23014.74189934038,668.1830487469493,7249.140113489642,5221.836891393291,0.0,0.0,0.0,2019-03-17T21:19:08.764853,8,EyesOpen
-6776.937160126825,-3855.4076976070046,-2859.2575024673347,-6151.915329923074,23260.36521915975,95.93368720217791,7510.655523616734,5382.858858449324,0.0,0.0,0.0,2019-03-17T21:19:08.772274,8,EyesOpen
-6651.5215219880965,-3730.2602804017406,-2667.323072829613,-5935.483388362335,23431.333712498395,376.917466749843,7662.982662079652,5602.330637255984,0.0,0.0,0.0,2019-03-17T21:19:08.772921,8,EyesOpen
-6943.032973174211,-4020.8329583207324,-2891.376959249611,-6114.4314544715235,23213.985349414987,984.1696601116253,7423.148444074207,5475.193914794197,0.0,0.0,0.0,2019-03-17T21:19:08.779597,8,EyesOpen
-7109.26289668833,-4191.533230725912,-3107.205403710056,-6350.711745108574,23019.972207542924,790.8047188287638,7239.886491285145,5239.181845090609,0.0,0.0,0.0,2019-03-17T21:19:08.780300,8,EyesOpen
-6850.1614749624105,-3922.8205588842106,-2918.2437560848903,-6207.839394550252,23206.31870106682,150.15901925075283,7452.47393279957,5331.33808747984,0.0,0.0,0.0,2019-03-17T21:19:08.787067,8,EyesOpen
-6645.8888823853595,-3726.1252076775086,-2673.514506043733,-5954.258853704793,23431.758395643046,264.8234683064781,7664.413173724792,5579.956541056221,0.0,0.0,0.0,2019-03-17T21:19:08.787724,8,EyesOpen
-6884.69492014586,-3964.059527404252,-2841.0408307362595,-6068.811544038242,23273.03865826591,914.2086999665141,7477.686700545157,5520.120921149364,0.0,0.0,0.0,2019-03-17T21:19:08.793970,8,EyesOpen
-7114.381446168595,-4188.225172546527,-3104.925525775615,-6337.524215879944,23033.316198982742,889.1970979210256,7240.221767451974,5265.08751691431,0.006,0.996,0.264,2019-03-17T21:19:08.801605,8,EyesOpen
-6910.086501847089,-3980.912742723554,-2983.309684194289,-6261.57298822081,23159.938831322055,232.68165977974652,7392.235981492518,5292.915438761168,0.0,0.0,0.0,2019-03-17T21:19:08.802134,8,EyesOpen
-6664.84316168346,-3739.648013072969,-2710.640753583998,-5992.145060556539,23406.813848830923,169.3591677378616,7638.395743178814,5544.886654005844,0.0,0.0,0.0,2019-03-17T21:19:08.808677,8,EyesOpen
-6834.336439888053,-3912.3152389902166,-2799.801862216218,-6029.114845885617,23315.506972730993,824.0417628338055,7521.227898744095,5557.29187217854,0.0,0.0,0.0,2019-03-17T21:19:08.809050,8,EyesOpen
-7109.844042044168,-4184.425375989124,-3093.1908599365784,-6311.931468478617,23051.152891058075,967.1152790922259,7255.376250192672,5301.230287698542,0.0,0.0,0.0,2019-03-17T21:19:08.816292,8,EyesOpen
-6966.256435663276,-4038.267318995872,-3033.5564057298193,-6304.756558508463,23116.755261034403,337.3548790639495,7345.520835580926,5262.1817901351205,0.0,0.0,0.0,2019-03-17T21:19:08.816918,8,EyesOpen
-6663.725574460695,-3733.1883589253857,-2723.9176897904504,-6016.597868990644,23396.8226190594,115.80438802294589,7630.080894241441,5515.203537369196,0.0,0.0,0.0,2019-03-17T21:19:08.824363,8,EyesOpen
-6771.773907157649,-3847.5398835587366,-2742.000251054794,-5988.747595399332,23373.062714703407,708.6844096999657,7581.622312262334,5584.069262035998,0.0,0.0,0.0,2019-03-17T21:19:08.825006,8,EyesOpen
-7072.226056125886,-4148.796695327365,-3038.853769165727,-6264.121087088715,23101.220798637965,1012.757541269963,7298.11278559122,5344.995003342033,0.0,0.0,0.0,2019-03-17T21:19:08.832444,8,EyesOpen
-7009.305895484197,-4080.802688694321,-3060.9372926875703,-6333.6126606002645,23088.882635698636,458.0319473781523,7312.73082646499,5243.205159092565,0.0,0.0,0.0,2019-03-17T21:19:08.833152,8,EyesOpen
-6700.583601067496,-3771.923932066433,-2764.4637542323776,-6069.571503349723,23355.650705772725,72.50905901301611,7595.1004141688845,5460.575873920426,0.006,1.01,0.258,2019-03-17T21:19:08.839208,8,EyesOpen
-6717.794444298082,-3785.290275250706,-2692.513488830744,-5957.119876995072,23412.91587506722,586.5321262517126,7629.4997488856025,5598.8214133765005,0.0,0.0,0.0,2019-03-17T21:19:08.839947,8,EyesOpen
-7031.523529472773,-4101.701569760033,-2981.92387603806,-6212.08622599676,23145.141976492643,1030.3483641562896,7345.967870470032,5388.133870140776,0.0,0.0,0.0,2019-03-17T21:19:08.847311,8,EyesOpen
-7060.759611220314,-4133.10577071974,-3086.9323714890925,-6356.836123089329,23056.137330071608,576.1609168244502,7274.174067279586,5220.004048347956,0.0,0.0,0.0,2019-03-17T21:19:08.847957,8,EyesOpen
-6751.992613314702,-3822.7965024467117,-2812.609411789109,-6121.628716186133,23312.780059907444,64.79770717593517,7545.25602403355,5402.193117403164,0.0,0.0,0.0,2019-03-17T21:19:08.855697,8,EyesOpen
-6687.239609627678,-3762.826772073123,-2672.4416223098783,-5950.1908362139275,23434.44060497768,458.76955494517745,7653.617281152879,5588.785480116067,0.0,0.0,0.0,2019-03-17T21:19:08.856391,8,EyesOpen
-6990.597485375105,-4064.3071012863043,-2925.597480010686,-6157.302100336802,23198.406183529638,1022.8158262748511,7401.534307185925,5432.50208288456,0.0,0.0,0.0,2019-03-17T21:19:08.861621,8,EyesOpen
-7097.885858760579,-4176.311692751849,-3111.2957729453774,-6364.97215807106,23037.56303042925,706.963325376907,7255.398601937128,5215.176071545609,0.0,0.0,0.0,2019-03-17T21:19:08.868558,8,EyesOpen
-6806.463814552286,-3873.780831549267,-2879.66464515503,-6177.8210017467745,23259.806425548366,104.29323962846276,7499.323189177894,5350.091201077843,0.0,0.0,0.0,2019-03-17T21:19:08.869103,8,EyesOpen
-6665.513714017119,-3728.9638792233327,-2675.6379217669873,-5955.175275227461,23443.649523693268,337.7125069752344,7667.8329906264535,5575.508543909615,0.0,0.0,0.0,2019-03-17T21:19:08.876463,8,EyesOpen
-6940.306060350664,-4019.1118739976737,-2879.6199416661193,-6113.291515504303,23246.082454452808,966.9811686254941,7448.227101353062,5471.930560103722,0.004,1.014,0.256,2019-03-17T21:19:08.876734,8,EyesOpen
-7111.207498455942,-4193.902515638175,-3108.4794531440084,-6354.779762599441,23044.89440261059,821.1807395435262,7256.5832443932595,5236.253766566964,0.0,0.0,0.0,2019-03-17T21:19:08.884466,8,EyesOpen
-6854.3859546644635,-3935.6057567126463,-2928.1679306230462,-6224.402037191634,23220.467355307028,169.91796134924428,7456.229025868061,5313.81431982688,0.0,0.0,0.0,2019-03-17T21:19:08.884791,8,EyesOpen
-6661.959786648726,-3734.5518153371595,-2681.874058470018,-5969.726260867866,23443.82833764891,234.42509584726048,7673.242112784638,5555.257863433107,0.0,0.0,0.0,2019-03-17T21:19:08.891240,8,EyesOpen
-6880.850420099548,-3956.862265689643,-2821.8853857380614,-6059.222645666915,23306.499219715504,896.8860980136512,7510.543764894458,5515.203537369196,0.0,0.0,0.0,2019-03-17T21:19:08.891777,8,EyesOpen
-7124.663248618037,-4199.468100007546,-3097.504746616453,-6335.06552398986,23057.791359161303,915.4380459115561,7258.3490322052285,5255.1409906316985,0.0,0.0,0.0,2019-03-17T21:19:08.899381,8,EyesOpen
-6928.414932300441,-4002.415120889559,-2991.4904226649314,-6280.5496192633655,23168.49954944844,255.25692167960665,7388.994978546498,5262.360604090763,0.0,0.0,0.0,2019-03-17T21:19:08.900024,8,EyesOpen
-6660.529275003586,-3737.435190371894,-2708.740855305297,-6001.510441483312,23430.238477020084,150.40488843976124,7650.197464251217,5516.477586803149,0.0,0.0,0.0,2019-03-17T21:19:08.907401,8,EyesOpen
-6817.326762357565,-3898.7924335947555,-2780.9146381514834,-6022.051694637739,23351.873260959776,792.3916926850907,7549.972242113619,5540.908043492799,0.0,0.0,0.0,2019-03-17T21:19:08.908371,8,EyesOpen
-7101.64095182907,-4187.6887306796,-3086.150060433157,-6311.707951034064,23074.063429124766,973.2173053285248,7265.3898317086505,5279.727909532537,0.0,0.0,0.0,2019-03-17T21:19:08.915363,8,EyesOpen
-6988.76464232977,-4064.932950131053,-3055.438763551565,-6328.605869842276,23114.453031355504,356.3538618509605,7328.868785961722,5220.562841959339,0.002,1.012,0.256,2019-03-17T21:19:08.916229,8,EyesOpen
-6677.2260281117,-3751.650899845469,-2748.9292918359392,-6038.122598901105,23397.224950459597,92.4244633226947,7617.340399901915,5470.298882758485,0.0,0.0,0.0,2019-03-17T21:19:08.921759,8,EyesOpen
-6761.4026977303865,-3837.816874720678,-2746.4482482014,-5989.082871566162,23390.765296312013,670.2394092368376,7586.02560592003,5553.1567994543075,0.0,0.0,0.0,2019-03-17T21:19:08.929179,8,EyesOpen
-7070.460268313917,-4156.2398262309825,-3043.6370424791626,-6257.706136430042,23120.62211282517,1021.9441082410942,7301.219678070507,5322.91147982019,0.0,0.0,0.0,2019-03-17T21:19:08.930001,8,EyesOpen
-7026.069703825678,-4108.630610541179,-3087.021778466914,-6344.341497938812,23092.48126655594,492.9900757062526,7293.888305889167,5205.944801085568,0.0,0.0,0.0,2019-03-17T21:19:08.937167,8,EyesOpen
-6701.56707782353,-3784.0609293056646,-2786.7260917098633,-6079.093346487683,23369.73230477957,74.38660554726191,7578.7836407165105,5422.376742646306,0.0,0.0,0.0,2019-03-17T21:19:08.938080,8,EyesOpen
-6692.2016968967555,-3783.569190927648,-2696.268581899236,-5953.051859504207,23445.460014994147,554.0773933026068,7626.325801172949,5569.585331628959,0.0,0.0,0.0,2019-03-17T21:19:08.944270,8,EyesOpen
-7028.863671882591,-4119.091226946262,-2992.7421203544286,-6214.231993464469,23171.472331460995,1017.5408145833987,7331.64040227418,5355.388564513751,0.0,0.0,0.0,2019-03-17T21:19:08.944939,8,EyesOpen
-7081.21145739692,-4162.0512797893625,-3123.008087039958,-6376.036271576438,23061.255879551874,592.5894489991008,7238.925366273566,5170.78550705737,0.0,0.0,0.0,2019-03-17T21:19:08.951745,8,EyesOpen
-6752.238482503711,-3829.859653694589,-2847.098153483648,-6140.203015828492,23322.637179212237,62.85310540832346,7522.859576089332,5356.304986036419,0.0,0.0,0.0,2019-03-17T21:19:08.952451,8,EyesOpen
-6669.112344874424,-3756.009490014254,-2694.033407453705,-5957.544560139723,23459.809834934455,411.1379875109181,7639.55803389049,5552.441543631738,0.004,1.008,0.26,2019-03-17T21:19:08.959880,8,EyesOpen
-6976.180610201432,-4058.2721302833716,-2935.2087301264683,-6155.6927747360205,23234.70541652506,995.6137532727425,7390.246676235995,5407.423425605706,0.0,0.0,0.0,2019-03-17T21:19:08.960777,8,EyesOpen
-7106.31246642023,-4179.552695697867,-3128.1936917535895,-6371.565922685376,23062.28405979682,724.5317965187785,7233.382133648651,5186.677597365093,0.0,0.0,0.0,2019-03-17T21:19:08.967778,8,EyesOpen
-6808.430768064352,-3881.201610708429,-2900.0717878427254,-6186.426423362068,23284.728620616035,116.67610605670286,7481.061813957908,5320.631601885749,0.0,0.0,0.0,2019-03-17T21:19:08.968438,8,EyesOpen
-6659.612853480918,-3741.614966585036,-2696.4250441104227,-5968.787487600743,23465.73304721511,294.372474476394,7651.024478796063,5540.058677203498,0.0,0.0,0.0,2019-03-17T21:19:08.974306,8,EyesOpen
-6920.234193829799,-4010.3723419156486,-2886.817203380728,-6108.709407890965,23283.096943270797,935.5322641768771,7443.846159439821,5453.468019183639,0.0,0.0,0.0,2019-03-17T21:19:08.974949,8,EyesOpen
-7110.73811182238,-4199.848079663287,-3125.3550202077654,-6353.192788743114,23070.42009477855,837.2516438068919,7236.62313659467,5214.751388400959,0.0,0.0,0.0,2019-03-17T21:19:08.981442,8,EyesOpen
-6874.256655485232,-3946.7816289403,-2961.762602539373,-6235.890833841662,23232.5820008018,188.604019713881,7426.61296446478,5280.174944421643,0.0,0.0,0.0,2019-03-17T21:19:08.989266,8,EyesOpen
-6643.676059684284,-3718.9055942184445,-2696.8273755106184,-5967.960473055897,23473.64556475229,215.38140957133885,7663.295586502027,5535.834197501445,0.0,0.0,0.0,2019-03-17T21:19:08.990122,8,EyesOpen
-6847.143989460945,-3930.554262465747,-2822.1983101604355,-6043.598776292655,23351.33681909285,870.4886878119336,7515.662314374723,5510.956705922688,0.0,0.0,0.0,2019-03-17T21:19:08.996500,8,EyesOpen
-7083.156059164532,-4169.181486270605,-3089.882801757193,-6311.05975044486,23108.1051359302,942.4166014691117,7269.591959666248,5261.958272690567,0.008,1.002,0.264,2019-03-17T21:19:08.997213,8,EyesOpen
-6916.2555833167535,-3991.8203940177436,-3006.5107949388976,-6279.588494251788,23196.707450951035,287.91282032881026,7379.271969708439,5244.032173637411,0.0,0.0,0.0,2019-03-17T21:19:09.004034,8,EyesOpen
-6642.357306761421,-3711.5071668037376,-2710.7301605618195,-5997.6212379480885,23462.872023924832,137.53028363350435,7643.491940914624,5493.120013847353,0.0,0.0,0.0,2019-03-17T21:19:09.004909,8,EyesOpen
-6783.016834618668,-3872.7973547932334,-2767.615350200576,-6004.639685707055,23399.951863283142,762.8873900040853,7554.241425304584,5528.502825320104,0.0,0.0,0.0,2019-03-17T21:19:09.012035,8,EyesOpen
-7067.1075066456215,-4174.925884595619,-3071.6661300261176,-6286.67399724412,23126.277104172364,993.4232823161224,7274.755212635424,5279.929075232634,0.0,0.0,0.0,2019-03-17T21:19:09.012680,8,EyesOpen
-6971.263226421264,-4060.0826215842512,-3055.0587838958245,-6314.72543653553,23156.92134582059,402.2866967066165,7327.415922572127,5214.103187811755,0.0,0.0,0.0,2019-03-17T21:19:09.020032,8,EyesOpen
-6671.928664675792,-3747.404068398961,-2750.2033412698916,-6033.831063965687,23438.77684340201,98.03475118097678,7614.8817080118315,5457.647795396781,0.0,0.0,0.0,2019-03-17T21:19:09.020768,8,EyesOpen
-6733.9324037948145,-3811.75474068579,-2731.0255445272383,-5968.161638755994,23448.79042491799,652.8497520506087,7598.944914215197,5557.448334389727,0.0,0.0,0.0,2019-03-17T21:19:09.026685,8,EyesOpen
-7052.78003844977,-4139.319555678315,-3030.5612719728083,-6243.780999634386,23197.154485840143,1034.0587537358706,7304.30421880534,5325.370171710274,0.0,0.0,0.0,2019-03-17T21:19:09.027434,8,EyesOpen
-7029.6012794496155,-4116.05138970034,-3098.108243716746,-6356.456143433588,23212.51013428094,523.7907795656657,7277.929160348077,5187.6387223766715,0.0,0.0,0.0,2019-03-17T21:19:09.034816,8,EyesOpen
-6711.245383172677,-3798.1201765680526,-2812.4976530668323,-6103.993189810895,23496.623158052345,68.12811709977592,7561.7069079526555,5392.604219031838,0.006,1.004,0.266,2019-03-17T21:19:09.035794,8,EyesOpen
-6687.41842358332,-3767.5206384087373,-2702.102387202071,-5954.661185104988,23593.89794992184,527.2776517006936,7638.84277806792,5563.9526920262215,0.0,0.0,0.0,2019-03-17T21:19:09.041737,8,EyesOpen
-6996.587752889127,-4084.200153851528,-2973.4525648894987,-6185.666464050587,23339.758615465,1038.4396956491107,7368.319614925339,5379.528448525482,0.0,0.0,0.0,2019-03-17T21:19:09.049683,8,EyesOpen
-7064.849980455635,-4144.303994691849,-3114.9167555471367,-6355.427963188644,23221.87551520771,662.4833539108461,7269.033166054865,5195.104205024744,0.0,0.0,0.0,2019-03-17T21:19:09.050361,8,EyesOpen
-6764.978976843236,-3838.688592754435,-2867.214723493424,-6148.719030465964,23461.441512279693,95.08432091287625,7527.084055791385,5353.823942401879,0.0,0.0,0.0,2019-03-17T21:19:09.056290,8,EyesOpen
-6655.567187734508,-3731.6460885579695,-2686.813793994641,-5944.98287975584,23620.228304890195,411.92029856685383,7666.670699914778,5564.869113548889,0.0,0.0,0.0,2019-03-17T21:19:09.056938,8,EyesOpen
-6942.697697007382,-4023.6939816110116,-2913.3040205602674,-6129.87650989014,23399.01309001602,1014.9927157154937,7425.718894686568,5431.339792172885,0.0,0.0,0.0,2019-03-17T21:19:09.064379,8,EyesOpen
-7081.233809141375,-4162.8782943342085,-3120.4599881720533,-6352.231663731535,23217.78514597239,787.25079146037,7256.650299626625,5204.067254551323,0.0,0.0,0.0,2019-03-17T21:19:09.065070,8,EyesOpen
-6802.172279616867,-3882.632122353569,-2910.7559216923623,-6188.996873974428,23418.21323850313,159.4796966886159,7483.38639538126,5314.9542587941005,0.0,0.0,0.0,2019-03-17T21:19:09.072063,8,EyesOpen
-6627.962783332203,-3708.0649981576203,-2678.4318898239007,-5948.715621079877,23619.691863023265,309.4151984948157,7674.538513963046,5548.9099680078,0.0,0.0,0.0,2019-03-17T21:19:09.072522,8,EyesOpen
-6879.241094498765,-3965.6912047494898,-2856.0835547546812,-6075.941750519485,23445.415311505236,955.0006335974496,7471.159991164207,5471.014138581055,0.0,1.004,0.27,2019-03-17T21:19:09.079044,8,EyesOpen
-7091.962646479923,-4188.269876035438,-3122.9633835510476,-6345.146160739203,23208.53152376789,884.7491007744195,7235.393790649628,5209.834004620791,0.0,0.0,0.0,2019-03-17T21:19:09.079358,8,EyesOpen
-6860.376222178486,-3953.4200970435263,-2973.139640467124,-6246.016174079916,23361.23864188655,224.27740386455108,7411.145557301707,5255.073935398333,0.0,0.0,0.0,2019-03-17T21:19:09.088111,8,EyesOpen
-6630.756751389116,-3722.5712803091146,-2705.8798320150177,-5980.253932506315,23605.520857038602,197.1870895847189,7649.7504293621105,5503.938258163722,0.0,0.0,0.0,2019-03-17T21:19:09.088491,8,EyesOpen
-6833.129445687467,-3925.4357129854816,-2825.662830551008,-6048.739677517376,23484.8437887244,841.2973095533025,7505.626381114291,5482.614693953359,0.0,0.0,0.0,2019-03-17T21:19:09.094918,8,EyesOpen
-7101.886821018079,-4186.817012645843,-3104.970229264525,-6325.856605274273,23227.128175154707,951.6255201846982,7245.049744254321,5227.17895831811,0.0,0.0,0.0,2019-03-17T21:19:09.095818,8,EyesOpen
-6933.756999225259,-4012.5628128722688,-3027.6778969380734,-6297.224020627024,23312.735356418536,317.19360556526254,7359.870655521233,5211.465681966029,0.0,0.0,0.0,2019-03-17T21:19:09.102061,8,EyesOpen
-6639.675097426784,-3727.019277455721,-2733.037201528216,-6012.5298514997785,23587.706516707723,124.67803057170279,7637.501673400602,5462.565179176949,0.0,0.0,0.0,2019-03-17T21:19:09.102708,8,EyesOpen
-6755.457133705275,-3848.5457120592255,-2763.9496641099054,-5994.000255346329,23550.535565678547,736.4676280579124,7574.983844159108,5520.500900805104,0.0,0.0,0.0,2019-03-17T21:19:09.109057,8,EyesOpen
-7056.959814662911,-4147.634404615689,-3065.1617723896234,-6278.225037840014,23272.815140821356,1002.8780702207173,7290.557895965326,5272.508296073473,0.0,0.0,0.0,2019-03-17T21:19:09.116366,8,EyesOpen
-6972.827848533136,-4055.1205343151732,-3065.0947171562575,-6323.397913384189,23283.14164675971,433.9814703442419,7322.587945769781,5189.762138099925,-0.002,1.006,0.268,2019-03-17T21:19:09.117118,8,EyesOpen
-6661.579806992985,-3747.8734550325225,-2756.6629954174755,-6041.989450691874,23563.790150140543,94.59258253485949,7614.188803933716,5425.282469425496,0.0,0.0,0.0,2019-03-17T21:19:09.124237,8,EyesOpen
-6708.205545926756,-3799.0589498351756,-2714.261736185758,-5958.013946773284,23591.48396152067,628.2404814053156,7620.581402847934,5542.986755727143,0.0,0.0,0.0,2019-03-17T21:19:09.124619,8,EyesOpen
-7025.890889870035,-4115.716113533511,-3014.9597543430036,-6225.18434824757,23314.61290295278,1046.821599819851,7333.853224975255,5325.52663392146,0.0,0.0,0.0,2019-03-17T21:19:09.131453,8,EyesOpen
-7015.564383931683,-4104.070854672295,-3094.5096128594414,-6340.20642521458,23255.447835379582,580.7206726933327,7295.922314634599,5189.113937510721,0.0,0.0,0.0,2019-03-17T21:19:09.132059,8,EyesOpen
-6706.551516837063,-3786.3631589845613,-2818.3091066252123,-6094.583105395211,23517.186762951227,100.82871923789016,7575.699099981678,5391.598390531349,0.0,0.0,0.0,2019-03-17T21:19:09.139129,8,EyesOpen
-6661.758620948627,-3748.5887108550924,-2699.6883988008976,-5940.110199464584,23616.808487988532,523.3884481654702,7658.042926555029,5568.154819983819,0.0,0.0,0.0,2019-03-17T21:19:09.139772,8,EyesOpen
-6950.7666767557475,-4044.0787725542514,-2954.7218030359513,-6152.898806679107,23373.57680482588,1071.6767396541525,7398.717987384557,5406.1717279162085,0.0,0.0,0.0,2019-03-17T21:19:09.147335,8,EyesOpen
-7037.089113842144,-4118.353619379237,-3114.469720658031,-6340.340535681312,23233.69958802457,725.515273274812,7274.911674846611,5205.408359218641,0.0,0.0,0.0,2019-03-17T21:19:09.148024,8,EyesOpen
-6739.810912586559,-3817.2756215662507,-2866.8794473265943,-6139.063076861272,23467.185910604705,140.12308599031996,7529.296878492461,5352.549892967927,0.0,0.0,0.0,2019-03-17T21:19:09.155361,8,EyesOpen
-6617.792739605038,-3697.5820300080813,-2672.5980845210656,-5924.93336497943,23641.753034800655,410.1992142437952,7686.161421079805,5567.350157183428,0.004,1.01,0.262,2019-03-17T21:19:09.156078,8,EyesOpen
-6919.049551373667,-3998.816490032255,-2897.926020375016,-6108.016503812851,23427.288046751983,1011.9081749806613,7444.583767006847,5433.21733870713,0.0,0.0,0.0,2019-03-17T21:19:09.161876,8,EyesOpen
-7073.276588115285,-4157.469172176025,-3111.3404764342877,-6341.324012437345,23241.902678239665,818.2079575309704,7260.204226995019,5194.567763157816,0.0,0.0,0.0,2019-03-17T21:19:09.162522,8,EyesOpen
-6802.686369739338,-3884.53202063227,-2910.286535058801,-6192.081414709261,23439.335637013395,179.0821765759202,7476.233837155562,5287.0145782249665,0.0,0.0,0.0,2019-03-17T21:19:09.168935,8,EyesOpen
-6615.222288992678,-3701.247716098752,-2680.8458782250736,-5949.31911818017,23649.26322093764,276.17815448977404,7675.454935485714,5517.975153681655,0.0,0.0,0.0,2019-03-17T21:19:09.176670,8,EyesOpen
-6860.845608812047,-3950.134390608596,-2853.982490775882,-6068.319805660225,23481.826303222933,918.7237523464862,7482.537029091958,5446.606033635859,0.0,0.0,0.0,2019-03-17T21:19:09.177311,8,EyesOpen
-7087.224076655398,-4177.272817763426,-3118.04599977088,-6335.266689689957,23241.857974750757,897.310781158302,7247.6648983555915,5191.773795100903,0.0,0.0,0.0,2019-03-17T21:19:09.184790,8,EyesOpen
-6877.564713664618,-3968.3063588507607,-2992.697416865518,-6259.807200408841,23371.676906547178,231.98875570163202,7401.735472886023,5217.880632624702,0.0,0.0,0.0,2019-03-17T21:19:09.185443,8,EyesOpen
-6619.916155328293,-3708.5567365356374,-2709.389055894501,-5977.772888871777,23628.565505572024,173.02485382853197,7655.651289898311,5477.697310173191,0.0,0.0,0.0,2019-03-17T21:19:09.191412,8,EyesOpen
-6803.513384284185,-3896.8031283382334,-2807.1779378864694,-6029.651287752544,23522.998216509608,817.0680185637497,7527.553442424946,5478.971359607143,0.0,0.0,0.0,2019-03-17T21:19:09.192055,8,EyesOpen
-7082.865486486613,-4173.763593883943,-3095.4036826376537,-6310.366846366745,23257.191271447096,970.3562820382455,7261.366517706695,5228.050676351867,0.004,1.01,0.266,2019-03-17T21:19:09.199315,8,EyesOpen
-6931.857100946558,-4021.9505455434974,-3035.7915801753497,-6301.001465439972,23324.961760635586,350.45300131475943,7355.60147233027,5198.434614948585,0.0,0.0,0.0,2019-03-17T21:19:09.200013,8,EyesOpen
-6634.489492713153,-3721.6772105309024,-2736.322907963146,-6013.848604422642,23607.130182639383,126.71203931713573,7643.156664747795,5451.724583116124,0.0,0.0,0.0,2019-03-17T21:19:09.207445,8,EyesOpen
-6738.581566641518,-3829.0773426386527,-2759.501666963299,-5983.718452896888,23581.224510815682,721.4696075284014,7593.155812401273,5521.014990927576,0.0,0.0,0.0,2019-03-17T21:19:09.208144,8,EyesOpen
-7044.86752091259,-4138.470189389013,-3065.251179367445,-6265.99863362296,23299.547827189905,1025.3415733983009,7302.650189715647,5275.369319363752,0.0,0.0,0.0,2019-03-17T21:19:09.214594,8,EyesOpen
-6983.534334127228,-4071.459659512003,-3094.978999493003,-6338.954727525083,23286.002670049988,465.00569164820814,7312.01557064242,5167.991539000456,0.0,0.0,0.0,2019-03-17T21:19:09.215256,8,EyesOpen
-6663.479705271686,-3749.527484122215,-2796.0691208921817,-6061.748392790365,23570.875653132876,93.74321624555782,7605.538678829513,5400.717902269113,0.0,0.0,0.0,2019-03-17T21:19:09.222070,8,EyesOpen
-6690.726481762706,-3778.361234469561,-2736.389963196512,-5960.092659007628,23617.501392066646,605.4640538053577,7631.824330308954,5531.229738143652,0.0,0.0,0.0,2019-03-17T21:19:09.222887,8,EyesOpen
-7016.972543832368,-4100.583982537268,-3034.405772019121,-6218.724694099987,23345.123034134274,1048.5873876318203,7345.029097202909,5318.19526174012,0.0,0.0,0.0,2019-03-17T21:19:09.229207,8,EyesOpen
-7034.742180674337,-4109.859956486221,-3134.340421478799,-6348.431867174133,23269.75295183098,604.1453008824946,7284.4111662401165,5165.555198854828,0.0,0.0,0.0,2019-03-17T21:19:09.236870,8,EyesOpen
-6713.435854129298,-3794.789766644212,-2857.9163978000165,-6104.239058999903,23532.542411392023,97.34184710286226,7563.360937042348,5356.170875569686,0.004,1.008,0.264,2019-03-17T21:19:09.237515,8,EyesOpen
-6645.151274818334,-3738.2175014278296,-2721.637811856009,-5935.79631278471,23652.705389583756,483.7811569906661,7664.144952791328,5537.28706089104,0.0,0.0,0.0,2019-03-17T21:19:09.244352,8,EyesOpen
-6965.4964763517955,-4052.5277319583574,-2987.1318324961467,-6157.88324569264,23403.81871507391,1027.4873408660103,7390.22432449154,5359.747154682535,0.0,0.0,0.0,2019-03-17T21:19:09.245133,8,EyesOpen
-7071.890779959057,-4151.657718617645,-3158.9943956130023,-6357.014937044971,23255.17961444612,714.0488283692395,7250.704735601514,5148.97020446899,0.0,0.0,0.0,2019-03-17T21:19:09.251713,8,EyesOpen
-6765.917750110359,-3844.90237771301,-2916.2320990839125,-6156.363327069679,23492.823361494942,123.80631253794581,7504.464090402615,5296.33525566283,0.0,0.0,0.0,2019-03-17T21:19:09.252357,8,EyesOpen
-6636.657611925318,-3712.2224226263074,-2727.3375066921126,-5947.4862751348355,23663.4342269223,350.6765187593125,7660.99335682313,5509.034455899532,0.0,0.0,0.0,2019-03-17T21:19:09.261257,8,EyesOpen
-6905.660856444938,-3986.903010237576,-2932.4594655584656,-6107.770634623842,23466.045971637486,982.4262240441113,7444.673173984668,5402.26017263653,0.0,0.0,0.0,2019-03-17T21:19:09.262123,8,EyesOpen
-7077.232846883875,-4152.730602351499,-3153.518218221452,-6347.202521229091,23268.41184716366,835.8658356506629,7254.795104836835,5167.790373300359,0.0,0.0,0.0,2019-03-17T21:19:09.267475,8,EyesOpen
-6825.127521172467,-3899.932372561976,-2980.8062888152945,-6224.714961614009,23437.838070134887,177.07051957494255,7445.9472234186205,5239.56182474635,0.0,0.0,0.0,2019-03-17T21:19:09.268137,8,EyesOpen
-6599.978399274159,-3686.3838060359726,-2722.9565647788722,-5959.220940973872,23672.24081423769,251.14420069983015,7676.818391897487,5493.477641758638,0.0,0.0,0.0,2019-03-17T21:19:09.274362,8,EyesOpen
-6826.714495028794,-3914.7068756469343,-2868.3323107161896,-6056.361622376636,23526.865068300376,906.6314585961651,7509.269715460506,5448.975318548121,0.004,1.002,0.266,2019-03-17T21:19:09.275010,8,EyesOpen
-7075.40000383854,-4161.805410600354,-3142.364697738254,-6336.630146101731,23274.066838510855,918.567290135299,7254.906863559111,5186.185858987076,0.0,0.0,0.0,2019-03-17T21:19:09.282177,8,EyesOpen
-6878.637597398472,-3959.2539023463614,-3028.1919870605457,-6274.112316860237,23389.982985256076,263.54941887252556,7392.772423359445,5201.228583005498,0.0,0.0,0.0,2019-03-17T21:19:09.282586,8,EyesOpen
-6606.1474807438235,-3695.5033177737378,-2734.221843984347,-5984.210191274905,23654.694694840276,168.3309874929175,7662.356813234904,5465.56031293396,0.0,0.0,0.0,2019-03-17T21:19:09.289369,8,EyesOpen
-6764.509590209675,-3856.815857507689,-2813.6822955229636,-6005.6008107186335,23571.166225810794,807.9708585704396,7560.432858518703,5491.890667902311,0.0,0.0,0.0,2019-03-17T21:19:09.296361,8,EyesOpen
-7054.054087883722,-4139.051334744851,-3112.5698223793297,-6285.176430365615,23298.81021962288,999.3241428523235,7281.907770861122,5239.025382879422,0.0,0.0,0.0,2019-03-17T21:19:09.297254,8,EyesOpen
-6936.394505070985,-4016.6308303631345,-3080.7632900194276,-6299.8615264727505,23343.13372887775,381.85720227446586,7346.079629192309,5184.21890547501,0.0,0.0,0.0,2019-03-17T21:19:09.303966,8,EyesOpen
-6627.202824020723,-3711.5071668037376,-2781.249914318313,-6016.66492422401,23623.603418302944,114.06095195543195,7629.522100630057,5431.675068339714,0.0,0.0,0.0,2019-03-17T21:19:09.304729,8,EyesOpen
-6705.2327639141995,-3789.0677200636533,-2773.471507247866,-5959.08683050714,23617.233171133183,695.6086391936111,7604.8457747513985,5525.820615985467,0.0,0.0,0.0,2019-03-17T21:19:09.312143,8,EyesOpen
-7012.546898430217,-4096.985351679963,-3070.213266636523,-6227.106598270727,23340.33976082084,1042.3288991843342,7319.481053290493,5298.14574696371,0.0,0.0,0.0,2019-03-17T21:19:09.313016,8,EyesOpen
-6976.739403812815,-4050.449019724014,-3111.7651595789384,-6307.595230054287,23313.674129685656,512.0337619821742,7314.2283933434965,5185.045920019856,0.002,1.008,0.258,2019-03-17T21:19:09.319838,8,EyesOpen
-6670.006414652636,-3729.142693178975,-2813.481129822866,-6040.536587302278,23594.00970864412,100.87342272680077,7610.925449243242,5410.664428551725,0.0,0.0,0.0,2019-03-17T21:19:09.320695,8,EyesOpen
-6676.063737400024,-3733.3895246254833,-2735.674707373942,-5924.262812645771,23656.81811056353,576.1385650799948,7652.007955552096,5553.357965154406,0.0,0.0,0.0,2019-03-17T21:19:09.327183,8,EyesOpen
-6988.407014418485,-4058.6074064502013,-3019.340696256244,-6172.456583077501,23390.519427123003,1048.073297509348,7369.034870747909,5354.338032524352,0.0,0.0,0.0,2019-03-17T21:19:09.327837,8,EyesOpen
-7031.232956794854,-4112.095130931751,-3145.3151280063544,-6338.105361235781,23281.062934525366,616.5281673107347,7272.25181725643,5170.40552740163,0.0,0.0,0.0,2019-03-17T21:19:09.335239,8,EyesOpen
-6706.775034281616,-3779.7693943702457,-2862.1632292465247,-6098.919343819541,23546.065216787483,90.14458538825339,7552.319175281427,5361.579997727871,0.0,0.0,0.0,2019-03-17T21:19:09.335881,8,EyesOpen
-6637.797550892538,-3705.047512656154,-2712.2053756958694,-5918.294896876204,23674.699506127778,439.18942680232846,7665.016670825085,5558.05183149002,0.0,0.0,0.0,2019-03-17T21:19:09.342735,8,EyesOpen
-6932.415894557941,-4008.6289058481348,-2963.438983373521,-6116.934849850518,23442.50958472605,1018.5466430838875,7411.9055166131875,5412.810196019434,0.0,0.0,0.0,2019-03-17T21:19:09.343547,8,EyesOpen
-7041.715924944392,-4123.807445026332,-3152.3112240208657,-6327.421227386145,23282.068763025854,749.0516601862503,7259.645433383636,5198.635780648682,0.0,0.0,0.0,2019-03-17T21:19:09.349962,8,EyesOpen
-6750.472694691742,-3828.89852868301,-2924.993982910393,-6149.255472332892,23499.685347042723,134.89277778777813,7496.640979843257,5326.845386844324,0.0,0.0,0.0,2019-03-17T21:19:09.350615,8,EyesOpen
-6599.844288807427,-3673.0621663406096,-2712.4959483737885,-5922.631135300534,23683.39433472089,323.67561145730156,7669.397612738325,5553.581482598959,0.002,1.008,0.262,2019-03-17T21:19:09.356496,8,EyesOpen
-6871.842667084059,-3938.7797044252998,-2907.7384361908958,-6067.425735882013,23496.064364440965,961.7061569340417,7460.028822425464,5466.253217012074,0.0,0.0,0.0,2019-03-17T21:19:09.364319,8,EyesOpen
-7072.851904970635,-4133.15047420865,-3151.90889262067,-6321.430959872122,23278.827760079832,849.8356759352298,7246.837883810746,5225.010839105945,0.0,0.0,0.0,2019-03-17T21:19:09.365067,8,EyesOpen
-6828.100303185022,-3886.6777880999794,-2985.723672595462,-6205.0007230044275,23444.92357312722,192.94025813821057,7432.044438367419,5290.568505593361,0.0,0.0,0.0,2019-03-17T21:19:09.372190,8,EyesOpen
-6603.8005475760165,-3671.29637852864,-2725.482311902322,-5940.646641331511,23679.572186419035,214.04030490402045,7661.261577756593,5541.310374892995,0.0,0.0,0.0,2019-03-17T21:19:09.372948,8,EyesOpen
-6811.1576808879,-3885.1131659881075,-2852.507275641832,-6019.481244025379,23549.93206857825,866.8453534657185,7508.15212823774,5514.734150735635,0.0,0.0,0.0,2019-03-17T21:19:09.379250,8,EyesOpen
-7045.649831968526,-4123.315706648315,-3117.4425026705867,-6283.254180342457,23308.354414505295,936.9180723331061,7262.238235740452,5272.530647817927,0.0,0.0,0.0,2019-03-17T21:19:09.379675,8,EyesOpen
-6874.748393863249,-3952.59308249868,-3033.7128679410066,-6251.313537515824,23398.163723726717,278.94977080223214,7371.426507404627,5259.94661568959,0.0,0.0,0.0,2019-03-17T21:19:09.387433,8,EyesOpen
-6589.853059035905,-3673.7327186742687,-2730.131474749026,-5961.366708441581,23672.978421804717,150.11431576184222,7645.034211282041,5522.847833972912,0.0,0.0,0.0,2019-03-17T21:19:09.388096,8,EyesOpen
-6736.346392195987,-3819.9578309008875,-2784.446213775422,-5963.579531142656,23612.360490841926,789.6647798615433,7561.885721908298,5563.684471092757,0.0,0.0,0.0,2019-03-17T21:19:09.395118,8,EyesOpen
-7048.488503514351,-4118.018343212408,-3090.240429668478,-6251.157075304637,23332.85192642831,1011.5728988138318,7276.006910324921,5306.415892412173,0.002,1.002,0.264,2019-03-17T21:19:09.395822,8,EyesOpen
-6941.84833071808,-4002.5268796118357,-3078.4163568516205,-6281.890723930684,23355.024856927976,405.0806647635299,7322.967925425521,5233.07981885431,0.0,0.0,0.0,2019-03-17T21:19:09.402126,8,EyesOpen
-6625.682905397762,-3694.1622131064196,-2778.12067009457,-6000.795185660742,23638.556735343547,100.53814655997117,7612.087739954918,5480.312464274462,0.0,0.0,0.0,2019-03-17T21:19:09.402917,8,EyesOpen
-6694.839202742482,-3769.4205366874385,-2766.698928677908,-5942.814760543676,23642.758863301144,656.0236997632622,7596.173297902739,5575.955578798721,0.0,0.0,0.0,2019-03-17T21:19:09.409512,8,EyesOpen
-7005.170822759966,-4091.1962498660387,-3065.7205660010063,-6213.382627175168,23368.72647627908,1034.528140369432,7307.791090940367,5349.86768363329,0.0,0.0,0.0,2019-03-17T21:19:09.410318,8,EyesOpen
-6983.66844459396,-4067.4363455100474,-3128.685430131606,-6315.619506313742,23326.012292624986,527.8587970565316,7281.43838422756,5221.121635570721,0.0,0.0,0.0,2019-03-17T21:19:09.416377,8,EyesOpen
-6666.608949495429,-3745.303004420162,-2834.0447347217482,-6056.272215398814,23601.251673847637,84.53429752997131,7569.462963278647,5434.960774774644,0.0,0.0,0.0,2019-03-17T21:19:09.424340,8,EyesOpen
-6653.689641200262,-3730.7520187797572,-2732.9924980393052,-5922.564080067168,23686.16595103335,533.1785122368947,7630.46087389718,5590.618323161402,0.0,0.0,0.0,2019-03-17T21:19:09.424859,8,EyesOpen
-6979.265150936264,-4054.248816281416,-3011.8975653526268,-6166.108687652193,23422.191849016173,1031.2200821900467,7347.152512926164,5393.9006202102455,0.0,0.0,0.0,2019-03-17T21:19:09.431444,8,EyesOpen
-7028.260174782297,-4108.094168674251,-3141.6717936601394,-6327.555337852877,23313.070632585364,652.0450892502176,7252.783447835857,5215.913679112635,0.0,0.0,0.0,2019-03-17T21:19:09.431799,8,EyesOpen
-6713.726426807217,-3786.519621195748,-2876.75891837584,-6101.668608387543,23564.61716468539,99.75583550403542,7521.071436532908,5389.184402130175,0.006,1.004,0.27,2019-03-17T21:19:09.438931,8,EyesOpen
-6615.669323881784,-3683.947465890344,-2706.3715703930343,-5905.375588581037,23718.30775956008,412.07676077804103,7658.221740510672,5597.68147440928,0.0,0.0,0.0,2019-03-17T21:19:09.439402,8,EyesOpen
-6919.965972896335,-3992.8262225182325,-2953.7383262799176,-6106.5636404232555,23486.45311432518,993.2668201049353,7406.518746199459,5450.383478448806,0.0,0.0,0.0,2019-03-17T21:19:09.446983,8,EyesOpen
-7062.860675199113,-4135.899738776653,-3161.5201427364523,-6330.706933821075,23301.313615001873,757.4112126125351,7234.007982493399,5222.395685004674,0.0,0.0,0.0,2019-03-17T21:19:09.447464,8,EyesOpen
-6779.418203761364,-3853.7313167728566,-2947.9045209770825,-6164.074678906761,23511.040033226018,127.24848118406311,7464.029784682964,5338.803570127913,0.0,0.0,0.0,2019-03-17T21:19:09.455066,8,EyesOpen
-6607.443881922231,-3682.360492034017,-2727.3375066921126,-5929.828397015142,23709.143544333405,279.37445394688297,7651.024478796063,5572.088727007953,0.0,0.0,0.0,2019-03-17T21:19:09.455752,8,EyesOpen
-6866.858228070525,-3940.836064915188,-2916.075636872725,-6065.145857947571,23531.26836195807,926.1892349945588,7449.322336831372,5492.5165167470595,0.0,0.0,0.0,2019-03-17T21:19:09.461855,8,EyesOpen
-7071.242579369853,-4144.371049925215,-3161.676604947639,-6318.033494714916,23310.589588950825,866.6441877656207,7233.382133648651,5251.8552841967685,0.0,0.0,0.0,2019-03-17T21:19:09.462532,8,EyesOpen
-6826.960364217802,-3901.7652156073113,-3006.600201916719,-6211.594487618743,23462.64850648028,216.72251423865728,7414.99005734802,5307.935811035134,0.0,0.0,0.0,2019-03-17T21:19:09.470037,8,EyesOpen
-6587.975512501659,-3664.568503447593,-2736.7922945967075,-5942.300670421204,23706.34957627649,205.16666235526353,7656.858284098898,5560.711689080202,0.0,0.0,0.0,2019-03-17T21:19:09.470677,8,EyesOpen
-6786.414299775875,-3857.486409841348,-2845.6899935829633,-6001.599848461134,23597.585987756967,866.0406906653275,7522.457244689137,5556.375450655872,0.006,1.0,0.266,2019-03-17T21:19:09.476876,8,EyesOpen
-7052.333003560663,-4126.646116572156,-3130.3171074768434,-6282.67303498662,23338.819842197878,969.372805282212,7259.041936283343,5301.789081309925,0.0,0.0,0.0,2019-03-17T21:19:09.484824,8,EyesOpen
-6901.995170354267,-3972.9331699530094,-3062.010176421425,-6263.38347952169,23413.184096000685,323.2285765681954,7357.993108986987,5278.0291769539335,0.0,0.0,0.0,2019-03-17T21:19:09.485512,8,EyesOpen
-6624.744132130639,-3691.077672371587,-2771.1022223356035,-5987.89822911003,23678.700468385276,133.01523125353233,7624.8058825499875,5523.294868862017,0.0,0.0,0.0,2019-03-17T21:19:09.492070,8,EyesOpen
-6747.723430123739,-3822.014191390776,-2809.971905943383,-5978.465792949891,23631.225363162204,744.3577938506357,7553.995556115575,5572.2898927080505,0.0,0.0,0.0,2019-03-17T21:19:09.492576,8,EyesOpen
-7047.415619780496,-4118.599488568245,-3114.559127635852,-6259.583682964288,23352.320295848884,1006.3202388668345,7266.194494509041,5322.375037953262,0.0,0.0,0.0,2019-03-17T21:19:09.499190,8,EyesOpen
-6965.049441462689,-4035.965089316975,-3125.533834163408,-6311.417378356145,23358.556432551915,421.41978996035937,7295.341169278761,5231.694010698082,0.0,0.0,0.0,2019-03-17T21:19:09.500139,8,EyesOpen
-6646.850007396938,-3723.666515787425,-2824.634650306064,-6034.255747110337,23641.19424118927,74.52071601399375,7584.706852997167,5462.743993132591,0.0,0.0,0.0,2019-03-17T21:19:09.506773,8,EyesOpen
-6690.70413001825,-3767.051251775176,-2778.7241671948636,-5948.447400146413,23673.045477038086,608.7274084958325,7594.720434513144,5579.889485822855,0.0,0.0,0.0,2019-03-17T21:19:09.507650,8,EyesOpen
-7015.206756020398,-4087.418805053092,-3076.2035341505452,-6216.266002209903,23397.42611615969,1014.0986459372814,7303.365445538217,5354.15921856871,0.0,0.0,0.0,2019-03-17T21:19:09.514873,8,EyesOpen
-7009.484709439839,-4078.2322380819605,-3156.2227793005445,-6333.120922222248,23341.457348043605,533.6255471260008,7265.970977064488,5210.549260443361,0.008,1.01,0.254,2019-03-17T21:19:09.515509,8,EyesOpen
-6678.880057201392,-3756.612987114547,-2861.8950083130608,-6078.15457322056,23620.228304890195,59.34388152884025,7555.984861372097,5418.129911199798,0.0,0.0,0.0,2019-03-17T21:19:09.524293,8,EyesOpen
-6648.83931265346,-3735.043553715176,-2748.102277291093,-5931.393019127014,23716.4972682592,474.1475551304287,7631.287888442027,5583.15284051333,0.0,0.0,0.0,2019-03-17T21:19:09.524934,8,EyesOpen
-6961.2719966497425,-4045.643394666123,-3007.0025333169147,-6152.6976409790095,23473.4891025411,1016.1103029382591,7371.962949271554,5415.693571054169,0.0,0.0,0.0,2019-03-17T21:19:09.530567,8,EyesOpen
-7045.403962779518,-4120.186462424572,-3162.7047851925836,-6341.68164034863,23335.601190996313,662.5727608886673,7248.62602336717,5214.751388400959,0.0,0.0,0.0,2019-03-17T21:19:09.531181,8,EyesOpen
-6728.1880054698,-3809.94424938491,-2904.8327094117058,-6127.5742802112445,23581.85035966043,90.21164062161931,7510.320247449905,5376.935646168667,0.0,0.0,0.0,2019-03-17T21:19:09.536666,8,EyesOpen
-6606.97449528867,-3698.632561997481,-2719.9390792774057,-5921.7817690112315,23743.252306372204,370.2342951577062,7658.534664933046,5589.187811516263,0.0,0.0,0.0,2019-03-17T21:19:09.544320,8,EyesOpen
-6899.804699397648,-3979.8622107341544,-2944.372945353144,-6097.600590896677,23534.57642013746,984.9072676786504,7428.445807510115,5466.499086201083,0.0,0.0,0.0,2019-03-17T21:19:09.545275,8,EyesOpen
-7054.031736139266,-4128.836587528776,-3158.5473607238964,-6327.041247730404,23347.313505090893,795.3644746976465,7250.6600321126025,5237.639574723194,0.0,0.0,0.0,2019-03-17T21:19:09.552324,8,EyesOpen
-6776.043090348612,-3849.9091684709992,-2958.2757304043453,-6175.36230985669,23539.985542295643,162.22896125661867,7467.695470773634,5340.032916072955,0.0,0.0,0.0,2019-03-17T21:19:09.553266,8,EyesOpen
-6597.095024239425,-3674.760898919213,-2733.6630503729643,-5937.875025019053,23743.542879050125,268.4891543971484,7662.669737657277,5573.67570086428,0.006,1.012,0.256,2019-03-17T21:19:09.559102,8,EyesOpen
-6845.914643515903,-3920.808901883233,-2899.9823808649044,-6052.114790930127,23582.90089164983,923.37291519319,7478.111383689808,5511.962534423177,0.0,0.0,0.0,2019-03-17T21:19:09.559894,8,EyesOpen
-7070.840247969658,-4144.594567369767,-3166.169305583156,-6324.314334906857,23344.25131610052,894.0697782122825,7236.6901918280355,5251.072973140833,0.0,0.0,0.0,2019-03-17T21:19:09.568467,8,EyesOpen
-6861.471457656796,-3935.717515434923,-3049.247330337445,-6259.918959131117,23463.140244858296,222.01987767456507,7376.969740029543,5267.210932637565,0.0,0.0,0.0,2019-03-17T21:19:09.569207,8,EyesOpen
-6619.714989628195,-3679.6782826993804,-2767.5035914782993,-5983.740804641343,23719.402995038392,165.08998454689797,7628.0915889849175,5519.204499626697,0.0,0.0,0.0,2019-03-17T21:19:09.576392,8,EyesOpen
-6802.865183694981,-3859.855694753611,-2860.1739239900025,-6026.902023184541,23618.842496733963,814.6316784181212,7502.877116546288,5518.735112993135,0.0,0.0,0.0,2019-03-17T21:19:09.577022,8,EyesOpen
-7058.367974563596,-4124.477997359991,-3136.262671501955,-6297.604000282765,23363.652630287725,965.5506569803545,7246.122627988176,5270.295473372397,0.0,0.0,0.0,2019-03-17T21:19:09.582626,8,EyesOpen
-6905.683208189394,-3969.200428628973,-3072.56019980433,-6277.733299461997,23436.005227089554,338.5842250089914,7342.458646590549,5242.84753118128,0.0,0.0,0.0,2019-03-17T21:19:09.583283,8,EyesOpen
-6616.3622279598985,-3683.366320534506,-2779.4841265063437,-5995.251953035826,23708.4953437442,112.3398676323733,7617.452158624192,5491.689502202214,0.0,0.0,0.0,2019-03-17T21:19:09.589646,8,EyesOpen
-6724.388208912398,-3802.858746392578,-2811.0671414216927,-5972.877856836064,23675.16889276134,709.6008312226334,7564.858503920854,5554.922587266277,0.0,0.0,0.0,2019-03-17T21:19:09.590333,8,EyesOpen
-7029.9589073609,-4111.022247197896,-3120.4376364275977,-6252.274662527402,23395.68268009218,1009.3600761127564,7277.258608014418,5308.2040319685975,0.004,1.012,0.26,2019-03-17T21:19:09.596960,8,EyesOpen
-6966.23408391882,-4037.641470151123,-3139.503674447975,-6316.312410391857,23387.9713282551,451.0805548525518,7291.340207021261,5208.26938250892,0.0,0.0,0.0,2019-03-17T21:19:09.597633,8,EyesOpen
-6664.239664583167,-3723.2194808983186,-2843.6336330930753,-6049.2761193843035,23662.651915866365,68.41868977769492,7574.335643569904,5430.222204950119,0.0,0.0,0.0,2019-03-17T21:19:09.604878,8,EyesOpen
-6685.406766582342,-3741.614966585036,-2778.3665392835783,-5943.060629732684,23710.64111121191,582.486460505302,7602.565896816957,5563.81858155949,0.0,0.0,0.0,2019-03-17T21:19:09.611416,8,EyesOpen
-6991.223334219853,-4045.4645807104807,-3057.9198071861038,-6189.063929207794,23450.287991796493,1042.2171404620576,7328.131178394697,5364.77629718498,0.0,0.0,0.0,2019-03-17T21:19:09.612068,8,EyesOpen
-7016.234936265342,-4076.667615970089,-3170.9525788965916,-6339.312355436368,23363.809092498912,580.9218383934306,7257.253796726918,5196.065330036322,0.0,0.0,0.0,2019-03-17T21:19:09.619330,8,EyesOpen
-6677.002510667147,-3741.972594496321,-2878.4352992099884,-6089.352797192669,23641.730683056197,81.42740505068363,7549.838131646888,5396.761643500525,0.0,0.0,0.0,2019-03-17T21:19:09.620404,8,EyesOpen
-6630.622640922385,-3687.1661170919083,-2750.4715622033555,-5931.12479819355,23746.627419784956,460.4906392682361,7640.072124012962,5568.266578706095,0.0,0.0,0.0,2019-03-17T21:19:09.627276,8,EyesOpen
-6949.917310466446,-4016.9661065299642,-3017.150225299624,-6151.289481078325,23497.539579575012,1009.62829704622,7370.912417282155,5398.795652245957,0.0,0.0,0.0,2019-03-17T21:19:09.627947,8,EyesOpen
-7050.120180859588,-4117.995991467952,-3182.10609937979,-6341.994564771005,23354.734284250055,701.5094997298122,7240.355877918706,5197.294675981364,0.0,0.0,0.0,2019-03-17T21:19:09.634537,8,EyesOpen
-6738.738028852705,-3799.5059847242815,-2931.9677271804485,-6132.715181435965,23598.72592672419,115.69262930066935,7504.0617590024185,5348.39246849924,0.004,1.006,0.262,2019-03-17T21:19:09.635181,8,EyesOpen
-6607.846213322427,-3669.5752942055815,-2737.5075504192773,-5919.010152698774,23774.522396865177,346.40733556834886,7661.418039967781,5562.700994336724,0.0,0.0,0.0,2019-03-17T21:19:09.642055,8,EyesOpen
-6886.326597491097,-3957.9575011679535,-2954.1630094245684,-6088.615189625644,23564.23718502965,972.6585117171421,7427.350572031805,5449.087077270398,0.0,0.0,0.0,2019-03-17T21:19:09.642784,8,EyesOpen
-7059.083230386166,-4131.407038141137,-3188.8116227163823,-6333.9032332781835,23355.740112750544,819.2808412648251,7225.3578573891955,5205.721283641014,0.0,0.0,0.0,2019-03-17T21:19:09.650039,8,EyesOpen
-6803.0216459061685,-3863.364918633094,-3008.6789141510626,-6201.491499124944,23533.816460825976,169.2921125044957,7428.46815925457,5285.1370316907205,0.0,0.0,0.0,2019-03-17T21:19:09.650855,8,EyesOpen
-6591.082404980946,-3653.8620178535007,-2756.841809373118,-5941.205434942894,23760.865481002988,243.16462792928553,7644.6542316263,5532.52613932206,0.0,0.0,0.0,2019-03-17T21:19:09.658215,8,EyesOpen
-6818.958439702802,-3889.6058666236245,-2910.7112182034516,-6039.553110546245,23614.930941454288,896.2378974244473,7471.785840008955,5485.408662010273,0.0,0.0,0.0,2019-03-17T21:19:09.658879,8,EyesOpen
-7059.932596675468,-4122.980430481485,-3181.4131953016754,-6309.450424844078,23375.25318566003,912.5099673879108,7233.76211330439,5232.521025242928,0.0,0.0,0.0,2019-03-17T21:19:09.664333,8,EyesOpen
-6867.662890870916,-3925.458064729937,-3076.8740864842043,-6254.845113139762,23482.899186956787,247.83614252044472,7366.777344557923,5238.444237523585,0.0,0.0,0.0,2019-03-17T21:19:09.671409,8,EyesOpen
-6605.476928410164,-3658.019442322188,-2783.4403852749333,-5970.955606812908,23749.533146564147,152.34949020737295,7633.053676253996,5499.624371483847,0.0,0.0,0.0,2019-03-17T21:19:09.672211,8,EyesOpen
-6761.916787852859,-3811.620630219058,-2850.674432596497,-5988.009987832307,23677.135846273406,804.1710620130375,7536.963526840631,5529.508653820593,0.0,0.0,0.0,2019-03-17T21:19:09.679553,8,EyesOpen
-7044.688706956948,-4101.589811037757,-3154.81461939986,-6277.330968061801,23399.236607460574,981.5545060103543,7250.9506047905215,5266.160400648165,0.002,1.006,0.254,2019-03-17T21:19:09.680209,8,EyesOpen
-6909.013618113234,-3973.9837019424085,-3118.6718486156287,-6286.741052477486,23447.270506295026,362.4558880872593,7320.464530046526,5213.902022111657,0.0,0.0,0.0,2019-03-17T21:19:09.687761,8,EyesOpen
-6601.632428363851,-3665.9319598593665,-2818.867900236595,-6001.152813572027,23725.88500093043,101.72278901610244,7608.734978286622,5462.788696621501,0.0,0.0,0.0,2019-03-17T21:19:09.688428,8,EyesOpen
-6690.70413001825,-3748.07462073262,-2812.3411908556454,-5948.112123979584,23722.442832284312,689.0372263237508,7585.578571030924,5555.727250066669,0.0,0.0,0.0,2019-03-17T21:19:09.694307,8,EyesOpen
-7005.617857649071,-4059.0097378503965,-3109.529985133408,-6221.988048790461,23446.667009194734,1027.375582143734,7297.263419301918,5320.899822819212,0.0,0.0,0.0,2019-03-17T21:19:09.695068,8,EyesOpen
-6970.726784554337,-4023.358705444182,-3158.681471190628,-6314.747788279986,23413.362909956326,479.6907877553449,7282.779488894879,5195.7971091028585,0.0,0.0,0.0,2019-03-17T21:19:09.702396,8,EyesOpen
-6638.043420081547,-3693.8716404285005,-2850.8755982965945,-6042.615299536622,23700.582826207024,76.42061429269485,7577.621350004834,5424.567213602926,0.0,0.0,0.0,2019-03-17T21:19:09.703039,8,EyesOpen
-6644.994812607148,-3709.5849167805814,-2773.538562481232,-5929.046085959207,23761.804254270108,559.0841840605956,7614.702894056189,5568.221875217185,0.0,0.0,0.0,2019-03-17T21:19:09.710389,8,EyesOpen
-6977.253493935286,-4038.222615506961,-3064.021833422403,-6184.392414616635,23489.627062037835,1026.593271087798,7324.6219545152135,5361.132962838765,0.0,0.0,0.0,2019-03-17T21:19:09.711023,8,EyesOpen
-7013.128043786054,-4073.0466333683294,-3180.4073668011865,-6335.087875734315,23393.045174246454,606.7828067282209,7244.937985532044,5188.421033432607,0.0,0.0,0.0,2019-03-17T21:19:09.718994,8,EyesOpen
-6695.219182398222,-3754.020184757732,-2910.890032159094,-6103.859079344164,23649.598497104467,77.5158497710049,7516.668142875212,5371.660634477214,0.004,1.002,0.264,2019-03-17T21:19:09.719930,8,EyesOpen
-6627.225175765178,-3684.953294390833,-2766.006024599794,-5931.393019127014,23776.958737010806,423.31968823906044,7626.437559895225,5557.716555323191,0.0,0.0,0.0,2019-03-17T21:19:09.725484,8,EyesOpen
-6939.791970228192,-3996.7154260534558,-3024.235728291956,-6145.075696119749,23532.922391047763,989.8693549477285,7367.604359102769,5398.3039138679405,0.0,0.0,0.0,2019-03-17T21:19:09.731977,8,EyesOpen
-7059.954948419923,-4109.859956486221,-3213.175024172667,-6354.712707366074,23369.06175244591,715.3005260587366,7215.120758428665,5181.424937418096,0.0,0.0,0.0,2019-03-17T21:19:09.732718,8,EyesOpen
-6750.316232480554,-3798.969542857354,-2970.815059043772,-6156.74330672542,23604.179752371285,119.11244620233134,7468.768354507489,5323.7608461094915,0.0,0.0,0.0,2019-03-17T21:19:09.739789,8,EyesOpen
-6574.899741995304,-3635.175959488864,-2745.73299237883,-5915.411521841469,23806.798315858643,332.23632958368415,7657.953519577208,5564.936168782255,0.0,0.0,0.0,2019-03-17T21:19:09.740438,8,EyesOpen
-6846.764009805204,-3905.430901697982,-2951.212579156468,-6068.8785992716075,23609.834743718475,965.7071191915417,7438.481740770548,5464.666243155747,0.0,0.0,0.0,2019-03-17T21:19:09.746540,8,EyesOpen
-7059.507913530817,-4121.192290925061,-3207.4306258476527,-6335.646669345698,23383.188054941664,837.3634025291685,7217.132415429643,5203.508460939939,0.0,0.0,0.0,2019-03-17T21:19:09.747294,8,EyesOpen
-6821.417131592886,-3880.419299652493,-3041.826551178283,-6222.256269723925,23547.33926622144,178.8363073869118,7404.0377025649195,5264.305205858374,0.0,0.0,0.0,2019-03-17T21:19:09.754552,8,EyesOpen
-6588.199029946212,-3646.508293927705,-2766.2295420443465,-5944.625251844555,23792.69436510734,220.5446625405148,7647.001164794107,5526.066485174476,0.0,0.0,0.0,2019-03-17T21:19:09.755193,8,EyesOpen
-6799.53477377114,-3867.8129157797002,-2902.061093099248,-6032.936994187474,23660.05911350955,873.7743942468637,7488.259075672517,5491.845964413401,0.004,1.006,0.254,2019-03-17T21:19:09.762637,8,EyesOpen
-7036.597375464127,-4105.926049462086,-3168.113907350768,-6299.548602050377,23421.431889704694,942.7742293803966,7247.441380911038,5247.407287050162,0.0,0.0,0.0,2019-03-17T21:19:09.763285,8,EyesOpen
-6855.3247279315865,-3914.39395122456,-3077.298769628855,-6255.515665473422,23520.651283341802,295.11008204341914,7373.192295216596,5242.668717225638,0.0,0.0,0.0,2019-03-17T21:19:09.769707,8,EyesOpen
-6600.850117307916,-3663.8085441361127,-2812.229432133369,-5999.699950182432,23763.815911271085,134.98218476559936,7617.6980278132,5471.505876959071,0.0,0.0,0.0,2019-03-17T21:19:09.770342,8,EyesOpen
-6741.531996909618,-3809.2066418178847,-2872.4003282070553,-6010.965229387907,23698.97350060624,763.1779626820044,7526.793483113466,5504.653513986292,0.0,0.0,0.0,2019-03-17T21:19:09.777086,8,EyesOpen
-7023.543956702228,-4090.5704010212903,-3162.1906950701114,-6286.29401758838,23432.54070669898,993.7138549940414,7255.130381003664,5261.42183082364,0.0,0.0,0.0,2019-03-17T21:19:09.777744,8,EyesOpen
-6919.585993240595,-3968.6863385065008,-3138.5425494363967,-6305.427110842123,23470.06928563944,397.65988560436796,7320.5092335354375,5201.005065560945,0.0,0.0,0.0,2019-03-17T21:19:09.784263,8,EyesOpen
-6604.247582465123,-3660.925169101378,-2827.4286183629774,-6012.708665455421,23759.814949013587,107.08720768537614,7615.306391156482,5450.450533682172,0.0,0.0,0.0,2019-03-17T21:19:09.792239,8,EyesOpen
-6678.164801378823,-3746.107667220553,-2812.609411789109,-5952.582472870645,23764.240594415736,666.3725574460694,7595.636856035812,5545.020764472576,0.0,0.0,0.0,2019-03-17T21:19:09.792933,8,EyesOpen
-6991.603313875594,-4054.606444192701,-3108.814729310838,-6220.42342667859,23489.13532365982,1043.82646606284,7308.7075124630355,5319.648125129715,0.0,0.0,0.0,2019-03-17T21:19:09.799218,8,EyesOpen
-6968.648072319994,-4035.7639236168775,-3175.780555698938,-6327.644744830697,23438.10629106835,526.9647272783193,7280.365500493705,5185.001216530945,0.004,1.004,0.26,2019-03-17T21:19:09.799834,8,EyesOpen
-6641.731457916672,-3709.763730736224,-2877.250656753857,-6066.598721337166,23715.379681036437,82.03090215097691,7571.184047601706,5401.589620302871,0.0,0.0,0.0,2019-03-17T21:19:09.807079,8,EyesOpen
-6609.008504034103,-3685.8026606801345,-2770.923408379961,-5928.666106303466,23805.166638513405,545.2037507538498,7638.172225734262,5567.663081605802,0.0,0.0,0.0,2019-03-17T21:19:09.807448,8,EyesOpen
-6950.409048844463,-4021.615269376668,-3063.7759642333945,-6188.0357489628495,23529.74844333511,1032.784704301918,7344.649117547169,5359.836561660357,0.0,0.0,0.0,2019-03-17T21:19:09.815265,8,EyesOpen
-7023.834529380147,-4083.0825666287624,-3202.8038147454045,-6359.406573701689,23410.747755855056,640.5786443446451,7243.328659931262,5172.461887891518,0.0,0.0,0.0,2019-03-17T21:19:09.815829,8,EyesOpen
-6701.857650501448,-3762.759716839757,-2936.1027999046805,-6133.899823892096,23663.188357733296,87.73059698708022,7515.6846661191785,5347.274881276475,0.0,0.0,0.0,2019-03-17T21:19:09.824122,8,EyesOpen
-6591.775309059061,-3659.0252708226767,-2764.374347254556,-5931.5271295937455,23817.303635752636,416.88238583593204,7654.846627097921,5557.448334389727,0.0,0.0,0.0,2019-03-17T21:19:09.824743,8,EyesOpen
-6882.6162079115165,-3959.0527366462634,-3001.660466392096,-6120.377018496635,23591.774534198586,1018.9713262285384,7409.536231700926,5417.660524566237,0.0,0.0,0.0,2019-03-17T21:19:09.830426,8,EyesOpen
-7004.0532355372,-4077.0475956258297,-3185.4812127925416,-6320.291020904901,23429.29970375296,795.0068467863616,7257.477314171471,5208.559955186839,0.0,0.0,0.0,2019-03-17T21:19:09.831126,8,EyesOpen
-6742.560177154563,-3799.3942260020053,-2979.7557568258953,-6161.146600383116,23624.58689505898,156.90924607625558,7474.66921504369,5309.746302336014,0.0,0.0,0.0,2019-03-17T21:19:09.837471,8,EyesOpen
-6583.974550244159,-3641.568558403082,-2765.7601554107855,-5930.968335982363,23814.733185140274,306.80004439354474,7653.8631503418865,5531.743828266123,0.004,1.004,0.264,2019-03-17T21:19:09.838142,8,EyesOpen
-6823.853471738515,-3889.874087557088,-2937.8462359721943,-6053.38884036408,23646.223383691715,960.8791423891953,7464.4991713165255,5457.871312841334,0.0,0.0,0.0,2019-03-17T21:19:09.844593,8,EyesOpen
-7019.118311300077,-4084.9824649074635,-3180.1167941232675,-6306.947029465084,23425.321093239916,896.8190427802853,7252.001136779922,5215.287830267886,0.0,0.0,0.0,2019-03-17T21:19:09.845242,8,EyesOpen
-6788.023625376657,-3845.2153021353847,-3025.3756672591767,-6206.386531160657,23581.20215907123,243.0975726959196,7431.642106967224,5267.590912293304,0.0,0.0,0.0,2019-03-17T21:19:09.852742,8,EyesOpen
-6550.290471350011,-3613.561822600582,-2754.2713587607573,-5938.143245952517,23826.19963004585,232.65930803529122,7669.352909249415,5517.28224960354,0.0,0.0,0.0,2019-03-17T21:19:09.860504,8,EyesOpen
-6757.66995640635,-3826.551595515203,-2879.731700388396,-6009.601772976133,23702.281558785628,880.8151937502854,7522.211375500128,5493.365883036361,0.0,0.0,0.0,2019-03-17T21:19:09.861159,8,EyesOpen
-7015.653790909504,-4084.937761418553,-3166.146953838701,-6288.640950756187,23444.811814404944,979.207572842547,7262.931139818566,5235.806731677858,0.0,0.0,0.0,2019-03-17T21:19:09.867006,8,EyesOpen
-6853.782457564171,-3920.294811760761,-3092.050920969358,-6265.283377800391,23529.144946234817,330.7387627051786,7367.067917235842,5213.611449433738,0.0,0.0,0.0,2019-03-17T21:19:09.867776,8,EyesOpen
-6569.714137281673,-3627.7775320741575,-2785.9437806539277,-5967.960473055897,23816.297807252147,159.8820280888114,7651.583272407445,5477.451440984183,0.0,0.0,0.0,2019-03-17T21:19:09.874918,8,EyesOpen
-6706.37270288142,-3774.3602722120613,-2836.3916678895557,-5967.379327700059,23764.017076971184,772.3868813975909,7574.0897743808955,5524.255993873596,0.0,0.0,0.0,2019-03-17T21:19:09.875367,8,EyesOpen
-7016.525508943261,-4084.803650951821,-3153.138238565712,-6264.903398144651,23477.288899098505,1022.2793844079238,7281.125459805186,5265.154572147676,0.004,1.002,0.264,2019-03-17T21:19:09.881711,8,EyesOpen
-6916.2555833167535,-3985.7183677814446,-3142.789380882905,-6300.979113695516,23501.60759706588,447.5936827175239,7328.3770475837055,5192.712568368026,0.0,0.0,0.0,2019-03-17T21:19:09.882354,8,EyesOpen
-6606.750977844117,-3680.2370763107633,-2838.939766757461,-6025.225642350393,23777.13755096645,105.12025417330912,7613.138271944317,5425.707152570147,0.0,0.0,0.0,2019-03-17T21:19:09.891210,8,EyesOpen
-6652.817923166504,-3732.4507513583603,-2804.1381006405477,-5947.218054201371,23801.210379744814,644.3337374131366,7615.082873711929,5537.778799269056,0.0,0.0,0.0,2019-03-17T21:19:09.892067,8,EyesOpen
-6967.217560674854,-4050.873702868665,-3101.684522829595,-6212.555612630322,23527.580324122948,1056.7904778469178,7329.271117361917,5318.463482673584,0.0,0.0,0.0,2019-03-17T21:19:09.897786,8,EyesOpen
-6951.5266360672285,-4033.7522666158998,-3179.8932766787148,-6323.397913384189,23468.683477483213,579.8266029151205,7289.529715720381,5180.083832750778,0.0,0.0,0.0,2019-03-17T21:19:09.898764,8,EyesOpen
-6617.658629138306,-3692.441128783361,-2884.962008590938,-6053.38884036408,23752.08124543205,121.99582123706595,7585.489164053102,5396.538126055972,0.0,0.0,0.0,2019-03-17T21:19:09.904887,8,EyesOpen
-6603.621733620374,-3678.6053989655256,-2784.0662341196817,-5919.032504443229,23832.5251737267,536.3077564606376,7649.303394473004,5552.419191887283,0.0,0.0,0.0,2019-03-17T21:19:09.905898,8,EyesOpen
-6932.438246302396,-4010.8864320381203,-3070.8614672257268,-6161.16895212757,23565.488882719146,1049.1014777542923,7364.810391045856,5359.076602348877,0.0,0.0,0.0,2019-03-17T21:19:09.911584,8,EyesOpen
-7002.600372147605,-4073.6501304686226,-3210.9622014715915,-6334.462026889566,23448.097520839874,698.8496421396306,7259.019584538888,5172.774812313893,0.0,0.0,0.0,2019-03-17T21:19:09.919305,8,EyesOpen
-6699.175441166812,-3772.214504744352,-2961.2932159058114,-6132.938698880518,23684.891901599396,117.32430664590677,7514.455320174136,5326.219537999576,0.002,1.012,0.256,2019-03-17T21:19:09.920306,8,EyesOpen
-6587.662588079284,-3655.9407300878443,-2779.864106162084,-5927.682629547433,23844.840984921575,398.35278968248247,7659.9651765781855,5537.063543446487,0.0,0.0,0.0,2019-03-17T21:19:09.927454,8,EyesOpen
-6870.725079861293,-3938.332669536194,-3001.504004180909,-6101.758015365364,23633.795813774566,1014.3445151262898,7427.32822028735,5414.441873364673,0.0,0.0,0.0,2019-03-17T21:19:09.928181,8,EyesOpen
-7024.661543924993,-4090.771566721388,-3212.3256578833652,-6333.746771066996,23445.10238708286,810.7201231384424,7250.10123850122,5180.2402949619645,0.0,0.0,0.0,2019-03-17T21:19:09.934411,8,EyesOpen
-6748.2598719906655,-3812.268830808262,-3012.3222484972775,-6181.7549087709085,23643.71998831272,172.51076370605992,7474.110421432308,5278.766784520958,0.0,0.0,0.0,2019-03-17T21:19:09.935191,8,EyesOpen
-6543.540244524508,-3616.579308102049,-2769.872876390562,-5928.5990510701,23865.96338343184,297.65818091132417,7685.021482112585,5523.361924095384,0.0,0.0,0.0,2019-03-17T21:19:09.942019,8,EyesOpen
-6798.81951794857,-3872.260912926306,-2940.796666240295,-6051.041907196272,23699.062907584062,948.7421451499636,7494.450508886637,5453.847998839378,0.0,0.0,0.0,2019-03-17T21:19:09.942666,8,EyesOpen
-7028.327230015663,-4089.1845928650614,-3202.49089032303,-6315.619506313742,23463.520224514035,918.0755517572823,7261.143000262142,5199.015760304423,0.0,0.0,0.0,2019-03-17T21:19:09.950169,8,EyesOpen
-6809.928334942858,-3859.2521976533176,-3063.686557255573,-6224.3126302138135,23604.090345393462,263.19179096124066,7424.7577696749895,5235.247938066475,0.0,0.0,0.0,2019-03-17T21:19:09.950834,8,EyesOpen
-6557.82300923145,-3619.216813947775,-2783.1721643414694,-5944.915824522474,23857.04503739417,212.56508976997017,7673.778554651565,5489.275513801041,0.0,0.0,0.0,2019-03-17T21:19:09.958170,8,EyesOpen
-6730.020848515135,-3805.1833278159297,-2877.4965259428654,-5989.060519821706,23758.98793446874,865.1913243760258,7550.687497936189,5491.555391735482,0.006,1.006,0.266,2019-03-17T21:19:09.958869,8,EyesOpen
-7007.383645461041,-4078.1428311041395,-3169.9691021405583,-6275.565180249832,23490.230559138126,996.0160846729381,7280.589017938259,5234.7114961995485,0.0,0.0,0.0,2019-03-17T21:19:09.964727,8,EyesOpen
-6856.487018643263,-3923.1781867954955,-3112.793339823883,-6268.993767379972,23556.36937098138,358.1867048962957,7369.6383678482025,5203.396702217663,0.0,0.0,0.0,2019-03-17T21:19:09.965387,8,EyesOpen
-6554.336137096422,-3625.9446890288223,-2811.1118449106034,-5983.383176730058,23837.733130184788,144.54873139247078,7650.80096135151,5459.927673331222,0.0,0.0,0.0,2019-03-17T21:19:09.971614,8,EyesOpen
-6667.525371018097,-3744.3195276641286,-2841.3314034141786,-5964.898284065519,23802.395022200948,742.2790816162923,7591.300617611482,5518.355133337394,0.0,0.0,0.0,2019-03-17T21:19:09.979491,8,EyesOpen
-6974.504229367284,-4047.9456243450195,-3134.854511601271,-6241.054086810838,23528.42969041225,1042.3288991843342,7310.339189808273,5277.515086831461,0.0,0.0,0.0,2019-03-17T21:19:09.980146,8,EyesOpen
-6922.871699675525,-3989.138184683107,-3167.6668724616616,-6317.072369703337,23510.816515781466,465.43037479285897,7314.675428232602,5166.0916407217555,0.0,0.0,0.0,2019-03-17T21:19:09.988487,8,EyesOpen
-6598.838460306938,-3661.863942368501,-2860.442144923466,-6040.380125091091,23795.533036653167,100.69460877115831,7607.55033583049,5402.170765658709,0.0,0.0,0.0,2019-03-17T21:19:09.989177,8,EyesOpen
-6630.242661266645,-3698.0961201305536,-2801.545298283732,-5938.880853519542,23839.320104041115,623.0101732027738,7632.092551242417,5533.867243989378,0.0,0.0,0.0,2019-03-17T21:19:09.994527,8,EyesOpen
-6949.067944177144,-4017.5919553747126,-3093.0567494698466,-6198.317551412291,23566.829987386463,1056.3881464467224,7345.520835580926,5320.139863507732,0.0,0.0,0.0,2019-03-17T21:19:09.995175,8,EyesOpen
-6968.290444408709,-4028.611365391179,-3195.6736082641614,-6339.8935007922055,23481.06634391145,589.0578733751623,7280.209038282519,5156.614501072705,0.002,1.004,0.26,2019-03-17T21:19:10.002307,8,EyesOpen
-6642.513768972608,-3700.1077771315313,-2904.989171622893,-6086.424718669024,23749.063759930585,97.20773663613042,7563.785620186999,5357.646090703737,0.0,0.0,0.0,2019-03-17T21:19:10.003045,8,EyesOpen
-6579.548904842009,-3645.211892749297,-2761.088640819626,-5908.482481060324,23871.752485245765,502.0201804661966,7669.732888905155,5551.435715131249,0.0,0.0,0.0,2019-03-17T21:19:10.010374,8,EyesOpen
-6884.516106190218,-3955.834085444699,-3015.183271787557,-6121.963992352962,23635.11456669743,1055.1364487572253,7416.554679459892,5393.855916721334,0.0,0.0,0.0,2019-03-17T21:19:10.011040,8,EyesOpen
-6970.324453154141,-4046.157484788595,-3178.0604336333795,-6312.177337667625,23492.778658006035,738.3004711032476,7287.652169186136,5196.400606203152,0.0,0.0,0.0,2019-03-17T21:19:10.016973,8,EyesOpen
-6665.93839716177,-3739.715068306335,-2935.633413271119,-6112.3750939816355,23723.515716018166,151.45542042916065,7540.271585020017,5346.850198131824,0.0,0.0,0.0,2019-03-17T21:19:10.017617,8,EyesOpen
-6557.375974342343,-3626.995221018222,-2756.7300506508413,-5915.299763119193,23879.217967893837,382.86303077495467,7681.489906488647,5550.854569775412,0.0,0.0,0.0,2019-03-17T21:19:10.024986,8,EyesOpen
-6838.985602734757,-3903.6651138860125,-2971.3515009106995,-6079.5850848657,23670.07269502553,1009.8071110018625,7452.518636288481,5438.671164354225,0.0,0.0,0.0,2019-03-17T21:19:10.025614,8,EyesOpen
-7003.785014603736,-4062.4742582409694,-3190.5103552949854,-6309.428073099622,23477.534768287514,857.0776411387493,7267.781468365368,5211.622144177216,0.0,0.0,0.0,2019-03-17T21:19:10.031928,8,EyesOpen
-6747.81283710156,-3804.2445545488067,-3008.0977687952245,-6174.244722633925,23656.39342741888,203.8702611768557,7471.271749886483,5297.564601607872,0.0,0.0,0.0,2019-03-17T21:19:10.039986,8,EyesOpen
-6531.649116474285,-3601.916563739367,-2750.4268587144447,-5906.649638014989,23886.705802286364,289.5444976740477,7690.8999909043305,5551.636880831347,0.002,1.01,0.258,2019-03-17T21:19:10.040918,8,EyesOpen
-6770.678671679339,-3845.3717643465716,-2910.6218112256306,-6013.021589877795,23729.64009399892,938.505046189433,7506.431043914681,5496.316313304462,0.0,0.0,0.0,2019-03-17T21:19:10.047914,8,EyesOpen
-7004.2991047262085,-4071.906694401109,-3176.272294076955,-6280.326101818812,23493.337451617415,943.1542090361368,7269.547256177338,5247.384935305708,0.0,0.0,0.0,2019-03-17T21:19:10.048757,8,EyesOpen
-6806.128538385456,-3873.423203637982,-3060.713775243017,-6221.049275523338,23612.4722495642,280.0673580249975,7409.759749145478,5262.874694213235,0.0,0.0,0.0,2019-03-17T21:19:10.054364,8,EyesOpen
-6535.270099076045,-3607.3927411309173,-2765.2684170327684,-5934.969298239863,23880.268499883237,194.05784536097593,7670.13522030535,5526.938203208233,0.0,0.0,0.0,2019-03-17T21:19:10.054844,8,EyesOpen
-6709.367836638432,-3785.692606650902,-2850.2721011963013,-5969.994481801329,23787.218187715793,834.0329926053278,7551.223939803117,5542.472665604671,0.0,0.0,0.0,2019-03-17T21:19:10.062697,8,EyesOpen
-6981.81324980417,-4053.80178139231,-3138.788418625405,-6244.764476390419,23525.255742699595,1015.6409163046976,7283.360634250717,5299.1068719752875,0.0,0.0,0.0,2019-03-17T21:19:10.063346,8,EyesOpen
-6846.473437127285,-3912.605811668135,-3094.6660750706287,-6247.536092702877,23576.441237502248,396.7211123372451,7361.256463677462,5253.9116446866565,0.0,0.0,0.0,2019-03-17T21:19:10.069761,8,EyesOpen
-6560.39345984381,-3621.9437267713224,-2807.7143797533968,-5972.855505091608,23843.566935487623,136.30093768846245,7635.221795466161,5494.438766770216,0.0,0.0,0.0,2019-03-17T21:19:10.070429,8,EyesOpen
-6651.655632454829,-3712.8035679821455,-2815.470435079388,-5926.833263258131,23829.060653336128,725.6493837415438,7596.195649647195,5577.900180566333,0.0,0.0,0.0,2019-03-17T21:19:10.077018,8,EyesOpen
-6963.820095517647,-4035.093371283218,-3113.463892157542,-6199.278676423869,23557.531661693058,1060.8584953377838,7312.797881698357,5349.353593510818,-0.002,1.006,0.256,2019-03-17T21:19:10.077575,8,EyesOpen
-6918.915440906935,-3996.0225219753415,-3154.5463984663966,-6286.495183288477,23534.88934455983,512.0561137266295,7313.4684340320155,5236.544339244883,0.0,0.0,0.0,2019-03-17T21:19:10.084864,8,EyesOpen
-6599.799585318517,-3680.01355886621,-2866.1418397595694,-6029.539529030268,23808.742917626252,97.34184710286226,7597.492050825603,5452.4845424276045,0.0,0.0,0.0,2019-03-17T21:19:10.085159,8,EyesOpen
-6619.491472183642,-3693.424605539394,-2794.5268505247655,-5919.524242821246,23865.404589820457,584.2522483172713,7629.566804118968,5589.3666254719055,0.0,0.0,0.0,2019-03-17T21:19:10.091970,8,EyesOpen
-6931.834749202103,-4007.0866354807185,-3069.2744933694,-6158.732611981942,23609.164191384818,1059.8303150928398,7355.154437441163,5396.1357946557755,0.0,0.0,0.0,2019-03-17T21:19:10.092255,8,EyesOpen
-6965.116496696055,-4038.7590573738885,-3182.82135520236,-6307.729340521019,23513.275207671548,626.8546732490865,7274.6658056576025,5225.815501906336,0.0,0.0,0.0,2019-03-17T21:19:10.099519,8,EyesOpen
-6634.891824113349,-3706.455672556838,-2899.155366320058,-6059.803791022753,23784.33481268106,113.16688217721966,7561.952777141664,5421.326210656906,0.0,0.0,0.0,2019-03-17T21:19:10.106740,8,EyesOpen
-6554.067916162958,-3625.8329303065457,-2745.576530167643,-5875.78187892221,23917.618264868055,480.9871889337527,7679.522952976579,5620.144977586863,0.0,0.0,0.0,2019-03-17T21:19:10.107662,8,EyesOpen
-6873.74256536276,-3931.49303573287,-3002.2639634923894,-6092.035006527306,23673.69367762729,1047.045117264404,7418.789853905422,5461.827571609923,0.0,0.0,0.0,2019-03-17T21:19:10.114643,8,EyesOpen
-6997.034787778233,-4061.669595440578,-3196.6794367646503,-6312.512613834455,23511.151791948294,749.8116194977307,7265.188666008552,5238.041906123389,0.0,0.0,0.0,2019-03-17T21:19:10.115588,8,EyesOpen
-6685.2726561156105,-3763.765545340246,-2957.404012370588,-6122.321620264247,23742.715864505277,143.29703370297358,7513.561250395925,5375.72865196808,0.0,1.006,0.256,2019-03-17T21:19:10.122876,8,EyesOpen
-6537.929956666227,-3615.1040929679984,-2749.130457536037,-5898.781823966721,23924.659064371477,350.3188908480276,7679.254732043116,5599.424910476793,0.0,0.0,0.0,2019-03-17T21:19:10.123699,8,EyesOpen
-6813.5269658001625,-3897.1607562495183,-2955.9064454920826,-6055.020517709318,23724.45448928529,981.3756920547119,7459.291214858439,5493.902324903289,0.0,0.0,0.0,2019-03-17T21:19:10.129118,8,EyesOpen
-6992.542087142717,-4075.5276770028686,-3188.63280876074,-6293.91596244764,23521.210076953183,866.4653738099782,7261.679442129069,5259.209008122565,0.0,0.0,0.0,2019-03-17T21:19:10.129526,8,EyesOpen
-6756.865293605959,-3824.1823106029406,-3020.972373601481,-6172.009548188395,23688.088201056507,208.69823797920205,7451.088124643341,5328.857043845302,0.0,0.0,0.0,2019-03-17T21:19:10.137320,8,EyesOpen
-6546.177750370235,-3614.925279012356,-2765.603693199598,-5910.963524694864,23920.278122458236,249.4231163767715,7678.740641920644,5578.838953833456,0.0,0.0,0.0,2019-03-17T21:19:10.137861,8,EyesOpen
-6758.541674440107,-3831.5360345287368,-2903.402197766566,-5996.414243747502,23789.028679016672,911.4147319096007,7524.290087734472,5550.429886630761,0.0,0.0,0.0,2019-03-17T21:19:10.145587,8,EyesOpen
-7000.320494213163,-4073.80659267981,-3179.58035225634,-6271.8547906702515,23544.321780719973,959.6721481886087,7278.689119659558,5300.202107453598,0.0,0.0,0.0,2019-03-17T21:19:10.146234,8,EyesOpen
-6814.041055922635,-3881.916866530999,-3079.1986679075562,-6223.887947069162,23648.905593026353,307.0012100936425,7408.7315689005345,5303.95720052209,0.0,0.0,0.0,2019-03-17T21:19:10.152186,8,EyesOpen
-6536.812369443461,-3613.2265464337524,-2785.183821342447,-5936.533920351734,23919.96519803586,187.57583946893686,7678.874752387375,5564.064450748498,0.0,0.0,0.0,2019-03-17T21:19:10.153195,8,EyesOpen
-6692.916952719325,-3774.2485134897847,-2855.0553745097372,-5957.231635717349,23851.077121624607,820.4878354654116,7584.081004152418,5592.2500005066395,0.002,1.006,0.258,2019-03-17T21:19:10.159405,8,EyesOpen
-6977.5887701021165,-4066.7657931763883,-3150.3889739977094,-6241.367011233212,23578.743467181142,1030.951861256583,7303.946590894055,5339.8988056062235,0.0,0.0,0.0,2019-03-17T21:19:10.167039,8,EyesOpen
-6859.102172744534,-3942.8253701717103,-3127.120808019735,-6266.378613278701,23609.14183964036,424.3925719729152,7358.708364809557,5273.357662362774,0.0,0.0,0.0,2019-03-17T21:19:10.167870,8,EyesOpen
-6561.376936599843,-3638.1710932458755,-2826.7580660293183,-5983.204362774416,23886.750505775275,130.93651901918878,7642.597871136412,5515.427054813749,0.0,0.0,0.0,2019-03-17T21:19:10.174930,8,EyesOpen
-6638.64691718184,-3713.049437171154,-2814.3304961121676,-5921.401789355492,23889.11979068754,700.0342845957618,7622.436597637725,5612.008942605132,0.0,0.0,0.0,2019-03-17T21:19:10.175712,8,EyesOpen
-6951.884263978513,-4025.526824656347,-3111.228717712011,-6191.455565864511,23611.44406931926,1067.3628529742782,7333.137969152685,5383.283541593974,0.0,0.0,0.0,2019-03-17T21:19:10.181817,8,EyesOpen
-6922.603478742061,-3994.4578998634697,-3173.4112707866757,-6294.139479892192,23566.38295249736,543.9297013198974,7309.333361307784,5252.838760952802,0.0,0.0,0.0,2019-03-17T21:19:10.182492,8,EyesOpen
-6593.339931170933,-3660.209913278808,-2873.4285084519993,-6028.220776107404,23846.316200055626,112.74219903256882,7599.816632248954,5472.444650226194,0.0,0.0,0.0,2019-03-17T21:19:10.189613,8,EyesOpen
-6586.545000856519,-3665.954311603822,-2787.9777893993605,-5904.906201947475,23918.087651501617,574.909219134953,7648.1634555057835,5618.200375819251,0.0,0.0,0.0,2019-03-17T21:19:10.190260,8,EyesOpen
-6902.621019199017,-3984.287856136305,-3065.5194003009083,-6142.3711350406575,23659.25445070916,1067.943998330116,7371.404155660171,5425.595393847871,0.0,0.0,0.0,2019-03-17T21:19:10.197887,8,EyesOpen
-6961.361403627563,-4030.3100979697824,-3194.779538485949,-6309.830404499818,23550.647324400823,663.8244585781645,7276.7221661474905,5239.159493346155,0.002,1.006,0.254,2019-03-17T21:19:10.198571,8,EyesOpen
-6644.7712951625945,-3707.819128968612,-2926.7821224668173,-6085.217724468437,23805.144286768947,111.57990832089286,7551.223939803117,5409.144509928765,0.0,0.0,0.0,2019-03-17T21:19:10.204998,8,EyesOpen
-6558.739430754117,-3625.9446890288223,-2769.962283368383,-5895.272600087238,23942.92043959146,433.1991592883062,7674.382051751859,5605.214012290718,0.0,0.0,0.0,2019-03-17T21:19:10.205836,8,EyesOpen
-6861.35969893452,-3927.581480453191,-3011.830510119261,-6087.877582058619,23714.17268683585,1026.1909396876026,7426.054170853397,5462.743993132591,0.0,0.0,0.0,2019-03-17T21:19:10.212416,8,EyesOpen
-6986.015377761767,-4057.3780605051593,-3205.0166374464798,-6308.91398297715,23543.159490008296,774.9349802654958,7265.121610775186,5237.863092167747,0.0,0.0,0.0,2019-03-17T21:19:10.213122,8,EyesOpen
-6700.695359789773,-3777.3107024801616,-2987.8023848298058,-6142.952280396496,23749.242573886226,144.45932441464956,7491.09774721834,5351.8793406342675,0.0,0.0,0.0,2019-03-17T21:19:10.221072,8,EyesOpen
