eeg1,eeg2,eeg3,eeg4,eeg5,eeg6,eeg7,eeg8,accx,accy,accz,iso_utc,session_id,command_name
6172.635397033143,20085.411678005657,-3318.876423701814,2202.5185468815025,32756.503850996956,-2282.2472193535828,6206.364179416201,5301.565563865372,-0.008,0.502,0.12,2019-03-17T21:14:45.894756,1,EyesClosed
6248.7877903923745,20120.056881911383,-3208.972896215069,2272.1218791153287,32827.98472976503,-2640.4562759943337,6296.464061315544,5345.419686486684,0.0,0.0,0.0,2019-03-17T21:14:45.901727,1,EyesClosed
6383.6805681801525,20237.694112979665,-3029.4213330055873,2432.272128137604,32979.686019383196,-2681.6952445143756,6466.314967431423,5496.18220283773,0.0,0.0,0.0,2019-03-17T21:14:45.902565,1,EyesClosed
6367.363794727778,20249.652296263255,-3075.980016705992,2416.1118168964167,32969.1806994892,-2288.081024656418,6441.571586319397,5513.437749557227,0.0,0.0,0.0,2019-03-17T21:14:45.909977,1,EyesClosed
6225.206699992025,20128.103509915294,-3268.2944259994542,2244.405715990748,32818.86521802726,-2208.53116613998,6268.189104579581,5360.641224460748,0.0,0.0,0.0,2019-03-17T21:14:45.910843,1,EyesClosed
6258.8237236528075,20117.866410954764,-3222.071018465879,2263.985844133597,32840.702872360096,-2561.196990155815,6298.363959594245,5354.092163335343,0.0,0.0,0.0,2019-03-17T21:14:45.918011,1,EyesClosed
6435.044876938448,20257.72127601162,-2998.821794846272,2466.3808901764023,33021.81905768145,-2660.2822733261914,6502.1895172821905,5533.353153866906,0.0,0.0,0.0,2019-03-17T21:14:45.918679,1,EyesClosed
6440.6775165411855,20300.994253277095,-3004.8567658492047,2489.1573177763603,33041.57799977994,-2302.1626236632615,6509.140909807791,5578.593084644447,-0.01,0.762,0.176,2019-03-17T21:14:45.924428,1,EyesClosed
6295.502936303966,20191.00131881253,-3200.3451228553204,2320.513405861069,32889.65319271722,-2126.5673192223694,6330.841044287807,5432.345620673374,0.0,0.0,0.0,2019-03-17T21:14:45.925155,1,EyesClosed
6273.084136615293,20127.634123281732,-3220.819320776382,2275.3628820613485,32856.05852080089,-2457.9989860056626,6296.441709571089,5367.0785268638765,0.0,0.0,0.0,2019-03-17T21:14:45.932545,1,EyesClosed
6424.606612277819,20236.665932734722,-3025.6215364481855,2441.950433486752,33012.36426977686,-2674.475631055311,6473.0204907680145,5510.554374522492,0.0,0.0,0.0,2019-03-17T21:14:45.933298,1,EyesClosed
6496.109842790347,20341.40620725229,-2967.1717246975572,2519.488635002212,33084.11336947839,-2349.436563186236,6540.858035189872,5610.399617004349,0.0,0.0,0.0,2019-03-17T21:14:45.940650,1,EyesClosed
6362.111134780781,20266.460808093645,-3163.8000206708934,2357.617301656878,32935.94365548416,-2099.454653198082,6368.101402294803,5475.015100838555,0.0,0.0,0.0,2019-03-17T21:14:45.941426,1,EyesClosed
6315.217174913547,20215.342368524358,-3208.6823235371503,2298.765158506055,32887.887404905254,-2341.7699148380657,6316.446520858589,5400.673198780203,0.0,0.0,0.0,2019-03-17T21:14:45.947779,1,EyesClosed
6417.007019163016,20251.887470708785,-3054.120010628702,2417.207052374727,33003.781199906014,-2654.6943372123646,6446.980708477582,5489.588438223414,0.0,0.0,0.0,2019-03-17T21:14:45.948438,1,EyesClosed
6478.809592581939,20321.02141630905,-2969.406899143088,2512.984277365718,33085.36506716789,-2441.972785231207,6531.984392641115,5589.947770827744,0.0,0.0,0.0,2019-03-17T21:14:45.954836,1,EyesClosed
6377.600893688309,20267.690154038686,-3115.810825325349,2400.0856161219617,32981.76473161754,-2107.0765980573415,6406.434644035655,5506.665170987269,0.0,0.0,0.0,2019-03-17T21:14:45.962951,1,EyesClosed
6313.674904546131,20200.791382883952,-3203.630829290251,2305.7389027761105,32901.27609983398,-2272.703024471167,6316.781797025418,5403.981256959589,-0.008,0.894,0.20400000000000001,2019-03-17T21:14:45.963401,1,EyesClosed
6430.79804549194,20280.654165822765,-3040.105466855224,2430.618099047911,33028.122249617845,-2601.94422029784,6460.727031317596,5503.0218366410545,0.0,0.0,0.0,2019-03-17T21:14:45.969365,1,EyesClosed
6517.679276189719,20374.486789046143,-2937.957994694471,2535.1795596098377,33127.14047755486,-2487.2797712421147,6569.825896003949,5615.92049788481,0.0,0.0,0.0,2019-03-17T21:14:45.970271,1,EyesClosed
6394.1858880741465,20314.360596461367,-3110.133482233701,2403.1031016234283,33003.11064757236,-2157.3009678484163,6426.08182741187,5515.359999580383,0.0,0.0,0.0,2019-03-17T21:14:45.977379,1,EyesClosed
6319.575765082332,20254.10029340986,-3218.427684119664,2297.7146265166552,32910.70853599412,-2212.6215353753014,6323.733189551019,5408.183384917186,0.0,0.0,0.0,2019-03-17T21:14:45.978040,1,EyesClosed
6388.620303704775,20269.07596219492,-3123.1869009956004,2355.8962173338195,32971.974667546114,-2599.194955729837,6396.845745664328,5433.574966618415,0.0,0.0,0.0,2019-03-17T21:14:45.984393,1,EyesClosed
6504.782319639006,20363.668544729775,-2979.4204806590656,2495.102881801472,33093.434046916256,-2571.523496094167,6531.358543796367,5563.639767603847,0.0,0.0,0.0,2019-03-17T21:14:45.985133,1,EyesClosed
6467.454906398643,20376.878425702864,-3048.3532605592327,2462.7152040857322,33057.91712497677,-2164.0735464183745,6479.971883293615,5558.700032079224,0.0,0.0,0.0,2019-03-17T21:14:45.991954,1,EyesClosed
6381.959483857094,20313.332416216424,-3172.360738797276,2346.3967259403144,32954.83087954889,-2118.677153429646,6359.361870212779,5449.6682226262365,0.0,0.0,0.0,2019-03-17T21:14:45.992590,1,EyesClosed
6408.558059758909,20302.98355853362,-3120.907023061159,2358.757240624099,32977.74141761559,-2513.0513325990837,6389.31320778289,5432.9938212625775,0.0,0.0,0.0,2019-03-17T21:14:46.000269,1,EyesClosed
6537.527625266031,20418.787946556564,-2954.8112100137723,2506.435216240313,33111.248387247135,-2585.8062608011082,6536.7676659545505,5564.153857726319,-0.008,0.9500000000000001,0.224,2019-03-17T21:14:46.000917,1,EyesClosed
6522.998991370081,20459.736342398686,-2990.7975185868168,2498.4779952142235,33100.3630876974,-2207.9500207841425,6511.711360420151,5582.236418990662,0.0,0.0,0.0,2019-03-17T21:14:46.009663,1,EyesClosed
6414.1459958727355,20388.94836770873,-3146.008032084469,2362.4229267147693,32979.06017053845,-2077.616998865247,6371.54357094092,5462.565179176949,0.0,0.0,0.0,2019-03-17T21:14:46.010336,1,EyesClosed
6427.802911734929,20360.807521439496,-3124.885633574204,2351.202350998205,32982.30117348447,-2427.7794275020874,6380.417213489677,5431.608013106348,0.0,0.0,0.0,2019-03-17T21:14:46.015637,1,EyesClosed
6534.53249150902,20426.27578094909,-2976.2912364353224,2470.8065355785534,33099.290203963545,-2619.0433048061495,6509.297372018978,5536.214177157185,0.0,0.0,0.0,2019-03-17T21:14:46.022824,1,EyesClosed
6533.9513461531815,20468.76644715863,-2988.852916819205,2480.328378716514,33108.78969535705,-2296.798204993988,6505.609334183852,5574.234494475662,0.0,0.0,0.0,2019-03-17T21:14:46.023500,1,EyesClosed
6433.167330404202,20386.42262058528,-3165.7669741829604,2326.5707286084566,32972.15348150176,-2092.0562257833753,6347.426038673644,5448.863559825845,0.0,0.0,0.0,2019-03-17T21:14:46.029735,1,EyesClosed
6435.491911827554,20336.153547305294,-3177.233419088533,2286.2928850999933,32954.49560338206,-2386.987493871152,6327.734151808519,5397.298085367452,0.0,0.0,0.0,2019-03-17T21:14:46.030434,1,EyesClosed
6543.272023591045,20418.363263411913,-3008.6789141510626,2424.851348978442,33088.27079394708,-2642.0879533395714,6481.983540294593,5512.2978105900065,0.0,0.0,0.0,2019-03-17T21:14:46.038160,1,EyesClosed
6610.0813877679575,20524.511697830167,-2931.5877475247084,2517.87930940143,33170.30169609805,-2342.8427985719204,6567.478962836142,5622.693076454768,0.0,0.0,0.0,2019-03-17T21:14:46.038992,1,EyesClosed
6498.412072469244,20464.273746523115,-3093.235563425489,2387.009845615607,33053.49147957462,-2049.4090973626494,6428.8757954687835,5523.361924095384,-0.016,0.982,0.232,2019-03-17T21:14:46.044375,1,EyesClosed
6429.725161758085,20377.481922803156,-3170.9078754076813,2291.7020072581777,32982.256469995555,-2300.4638910846584,6354.042155032415,5417.481710610594,0.0,0.0,0.0,2019-03-17T21:14:46.045241,1,EyesClosed
6542.266195090556,20440.647952633855,-3013.8421671202386,2409.76392147111,33104.29699472153,-2619.445636206345,6489.963113065138,5506.75457796509,0.0,0.0,0.0,2019-03-17T21:14:46.052351,1,EyesClosed
6605.812204576994,20514.118136658446,-2943.4565238304763,2486.586867164,33170.30169609805,-2445.0573259660396,6562.91920696726,5591.668855150802,0.0,0.0,0.0,2019-03-17T21:14:46.052995,1,EyesClosed
6501.451909715165,20451.868528350416,-3108.3900461661874,2354.5551126665014,33043.32143584746,-2126.2543947999948,6416.828205207373,5488.828478911934,0.0,0.0,0.0,2019-03-17T21:14:46.060504,1,EyesClosed
6472.908732045738,20373.12333263437,-3208.6376200482396,2252.6758614392115,32952.95333301465,-2260.610730720846,6315.954782480572,5381.383643315273,0.0,0.0,0.0,2019-03-17T21:14:46.061176,1,EyesClosed
6642.558472461519,20418.5197256231,-3072.403737593143,2354.1974847552165,33058.85589824389,-2615.1093977820155,6431.55800480342,5450.539940659994,0.0,0.0,0.0,2019-03-17T21:14:46.067025,1,EyesClosed
6804.385102317942,20513.67110176934,-2950.4749715894427,2475.3662914474357,33167.28421059659,-2514.97358262224,6549.575215527441,5570.546456640537,0.0,0.0,0.0,2019-03-17T21:14:46.067759,1,EyesClosed
6762.76615414216,20481.37283103142,-3076.851734739749,2383.992360114141,33082.74991306662,-2144.895749675721,6440.521054329998,5513.348342579406,0.0,0.0,0.0,2019-03-17T21:14:46.073978,1,EyesClosed
6717.99560999818,20402.538228337555,-3200.367474599776,2265.170486589728,32979.77542636102,-2189.1075002083185,6323.084988961815,5398.348617356851,0.0,0.0,0.0,2019-03-17T21:14:46.081579,1,EyesClosed
6832.950631731825,20420.665493090808,-3092.94499074757,2330.147007721306,33059.90643023329,-2557.7548215096976,6414.570679017387,5442.69447835618,-0.024,0.998,0.23600000000000002,2019-03-17T21:14:46.081927,1,EyesClosed
6957.539255325706,20495.834409694005,-2971.8655910331718,2438.53061658509,33158.14234711437,-2587.5720486130776,6530.598584484886,5549.446409874727,0.0,0.0,0.0,2019-03-17T21:14:46.089587,1,EyesClosed
6955.125266924533,20514.453412825278,-3037.914995898604,2409.0933691374507,33127.27458802159,-2192.348503154338,6485.403357196255,5550.184017441752,0.0,0.0,0.0,2019-03-17T21:14:46.089849,1,EyesClosed
6856.822294810092,20403.007614971117,-3206.1565764137003,2260.5883789763902,32993.14176954529,-2153.210598613095,6331.310430921368,5409.971524473611,0.0,0.0,0.0,2019-03-17T21:14:46.096556,1,EyesClosed
6917.931964150902,20392.4128880993,-3144.421058228142,2288.1704316342393,33035.945360177204,-2524.78599843812,6378.539666955432,5408.920992484212,0.0,0.0,0.0,2019-03-17T21:14:46.097220,1,EyesClosed
7074.416527082507,20504.462183053754,-2970.7480038104063,2443.917386998819,33184.62916429391,-2616.9198890828957,6541.081552634425,5547.501808107115,0.0,0.0,0.0,2019-03-17T21:14:46.105924,1,EyesClosed
7082.105527175132,20541.946058505306,-2997.726559367962,2448.8347707789867,33182.52810031511,-2240.9188438557203,6530.91150890726,5578.280160222073,0.0,0.0,0.0,2019-03-17T21:14:46.106693,1,EyesClosed
7000.43225293544,20472.81211290504,-3137.5143691914523,2334.952632779197,33075.44089262973,-2066.0164434929425,6405.004132390515,5478.211400295663,0.0,0.0,0.0,2019-03-17T21:14:46.114023,1,EyesClosed
6997.593581389616,20423.213591958713,-3130.786494110405,2314.0984552023956,33075.35148565191,-2407.595802258945,6405.093539368337,5436.190120719686,0.0,0.0,0.0,2019-03-17T21:14:46.114771,1,EyesClosed
7102.892649518568,20457.52351969761,-3004.1638617710905,2413.6084215174224,33169.966419931225,-2640.009241105228,6515.980543611115,5517.148139136808,0.0,0.0,0.0,2019-03-17T21:14:46.120251,1,EyesClosed
7165.879865393623,20517.381491348922,-2986.438928418032,2451.785201047087,33202.823484280525,-2308.9352022332196,6542.824988701938,5581.431756190272,-0.016,1.012,0.23800000000000002,2019-03-17T21:14:46.120987,1,EyesClosed
7070.929654947478,20447.28642073708,-3156.6027589562846,2308.7116847886664,33075.77616879656,-2072.1631732181518,6394.521164240977,5467.951949590677,0.0,0.0,0.0,2019-03-17T21:14:46.126948,1,EyesClosed
7063.821800210691,20407.522667351088,-3176.8981429217033,2263.516457500036,33047.434156827236,-2350.7106126201884,6362.602873158798,5408.07162619491,0.0,0.0,0.0,2019-03-17T21:14:46.127346,1,EyesClosed
7215.6124968066815,20506.85381971047,-2982.952056283004,2418.0340669195734,33204.32105115903,-2598.032665018161,6535.784189198517,5540.371601625872,0.0,0.0,0.0,2019-03-17T21:14:46.134193,1,EyesClosed
7252.984613535955,20536.849860769496,-2969.630416587641,2450.9581865022406,33230.60670263848,-2383.2324008026603,6563.813276745472,5587.466727193204,0.0,0.0,0.0,2019-03-17T21:14:46.134933,1,EyesClosed
7160.962481613456,20460.719819154718,-3146.9244536071365,2309.0022574665854,33097.99380278514,-2093.866717084255,6409.452129537121,5472.221132781641,0.0,0.0,0.0,2019-03-17T21:14:46.142416,1,EyesClosed
7140.622394159126,20407.030928973072,-3202.714407767583,2239.06364906593,33044.66254051477,-2289.511536301558,6348.253053218491,5392.403053331739,0.0,0.0,0.0,2019-03-17T21:14:46.149337,1,EyesClosed
7274.218770768496,20463.402028489356,-3047.7050599700287,2356.343252222926,33164.91492568432,-2615.265859993203,6483.548162406464,5480.603036952381,0.0,0.0,0.0,2019-03-17T21:14:46.150167,1,EyesClosed
7364.07278347883,20539.06268347057,-2959.6168350716634,2451.2711109246147,33245.470612701254,-2451.204055691249,6569.647082048307,5577.095517765942,0.0,0.0,0.0,2019-03-17T21:14:46.156876,1,EyesClosed
7300.415015270116,20512.039424424103,-3087.6029238227516,2360.0759935469623,33162.053902394044,-2087.0717867698418,6462.425763896199,5510.643781500314,0.0,0.0,0.0,2019-03-17T21:14:46.157619,1,EyesClosed
7241.540520374838,20433.540097897065,-3189.6386372612283,2254.464000995636,33072.78103503955,-2207.7712068285,6364.97215807106,5399.645018535259,-0.012,1.006,0.246,2019-03-17T21:14:46.164776,1,EyesClosed
7334.590832542281,20455.04247606307,-3074.6165602942183,2334.147969978806,33158.54467851456,-2582.453499132812,6459.140057461269,5446.583681891404,0.0,0.0,0.0,2019-03-17T21:14:46.165423,1,EyesClosed
7418.879260883244,20548.40571265289,-2960.2203321719567,2452.9698435032183,33260.26746753067,-2517.7451989346982,6570.608207059885,5561.650462347325,0.0,0.0,0.0,2019-03-17T21:14:46.172764,1,EyesClosed
7256.449133926527,20546.30464867409,-3068.9615689470256,2382.427738002269,33182.01401019264,-2135.128037348752,6482.207057739146,5520.612659527381,0.0,0.0,0.0,2019-03-17T21:14:46.173399,1,EyesClosed
7105.5525071087495,20482.043383365082,-3172.8748289197483,2285.2200013661386,33093.07641900497,-2132.5575867363914,6382.02653909046,5426.1318357147975,0.0,0.0,0.0,2019-03-17T21:14:46.179565,1,EyesClosed
7127.434864930495,20494.269787582136,-3077.634045795685,2340.1605892372836,33163.59617276146,-2500.556707448567,6459.56474060592,5459.502990186571,0.0,0.0,0.0,2019-03-17T21:14:46.180291,1,EyesClosed
7215.3219241287625,20587.945948594326,-2944.9317389645266,2458.602483105956,33273.67851420385,-2540.9016061903963,6584.913323511282,5576.134392754364,0.0,0.0,0.0,2019-03-17T21:14:46.187497,1,EyesClosed
7137.761370868847,20583.252082258714,-3005.1696902715794,2430.3945816033583,33243.593066167006,-2150.886017189743,6545.954232925682,5582.415232946305,0.0,0.0,0.0,2019-03-17T21:14:46.188141,1,EyesClosed
6969.497438609295,20474.890825139384,-3168.516238750963,2276.92750417322,33106.487465678154,-2089.016388537453,6392.576562473365,5446.807199335957,0.0,0.0,0.0,2019-03-17T21:14:46.196023,1,EyesClosed
6984.204886460887,20466.173644801813,-3107.630086854707,2295.6582660267673,33145.20068707474,-2446.5772445890007,6433.010868193015,5448.193007492186,0.0,0.0,0.0,2019-03-17T21:14:46.196675,1,EyesClosed
7089.749823778847,20561.839111070527,-2938.0474016722924,2439.2905758965703,33288.27420333317,-2560.884065733441,6591.954123014703,5584.784517858568,-0.002,1.008,0.244,2019-03-17T21:14:46.202359,1,EyesClosed
7040.888910399546,20588.817666628085,-2975.5536288682974,2436.474256095202,33276.092502605024,-2213.2920877089605,6574.519762339564,5609.751416415145,0.0,0.0,0.0,2019-03-17T21:14:46.208981,1,EyesClosed
6895.200240039854,20513.559343047065,-3141.2471105154887,2296.105300915873,33145.80418417504,-2047.1739229171185,6423.17610063268,5488.582609722926,0.0,0.0,0.0,2019-03-17T21:14:46.209904,1,EyesClosed
6867.55113214864,20473.61677570543,-3144.488113461508,2263.203533077661,33135.09769858095,-2381.8465926464314,6408.043969636437,5435.653678852758,0.0,0.0,0.0,2019-03-17T21:14:46.217136,1,EyesClosed
6968.558665342172,20544.360046906477,-2987.6235708741633,2390.429662517269,33260.26746753067,-2602.190089486848,6549.306994593978,5541.802113271012,0.0,0.0,0.0,2019-03-17T21:14:46.217902,1,EyesClosed
6981.992063759812,20607.45902150381,-2969.8762857766496,2435.9825177171847,33289.43649404484,-2295.568859048946,6579.101869952902,5607.404483247338,0.0,0.0,0.0,2019-03-17T21:14:46.225162,1,EyesClosed
6857.828123310581,20539.17444219285,-3138.073162802835,2302.5202515745464,33161.62921924939,-2046.1010391832638,6430.686286769663,5499.870240672856,0.0,0.0,0.0,2019-03-17T21:14:46.225806,1,EyesClosed
6812.990523933235,20482.66923220983,-3173.72419520905,2246.5291317140022,33122.446611219246,-2313.986696480119,6387.368606015278,5427.69645782667,0.0,0.0,0.0,2019-03-17T21:14:46.231643,1,EyesClosed
6919.049551373667,20550.551480120597,-3008.1871757730455,2378.180906555761,33256.71354016227,-2594.612848116499,6533.48195951962,5530.223909643163,0.0,0.0,0.0,2019-03-17T21:14:46.232542,1,EyesClosed
6958.813304759658,20617.69612046434,-2955.1017826916914,2450.2205789352156,33316.415049602394,-2368.2120285286937,6589.026044491058,5611.248983293651,0.0,0.0,0.0,2019-03-17T21:14:46.239699,1,EyesClosed
6852.553111619129,20580.27930024616,-3103.1820897081006,2342.284004960538,33206.64563258238,-2045.385783360694,6463.319833674412,5530.782703254546,-0.006,1.014,0.244,2019-03-17T21:14:46.240640,1,EyesClosed
6803.558087773095,20526.031616453125,-3165.163477082667,2274.0664808829406,33154.4766610237,-2218.187119744673,6406.211126591102,5454.809123850957,0.0,0.0,0.0,2019-03-17T21:14:46.247978,1,EyesClosed
6876.648292141949,20559.02279126916,-3043.3017663123333,2360.0312900580516,33252.310246504574,-2577.9384467528403,6512.5830784539085,5508.945048921711,0.0,0.0,0.0,2019-03-17T21:14:46.248646,1,EyesClosed
6952.37600235653,20645.389931844467,-2941.511922062865,2469.8454105669753,33348.48980289576,-2431.0204304481067,6617.412759949299,5624.168291588819,0.0,0.0,0.0,2019-03-17T21:14:46.255885,1,EyesClosed
6838.650326567928,20582.51447469169,-3095.627200082207,2360.4559732027024,33233.937112562315,-2086.356530947272,6486.90092407476,5546.898311006822,0.0,0.0,0.0,2019-03-17T21:14:46.256788,1,EyesClosed
6775.014910103669,20511.994720935192,-3175.557038254385,2275.854620439365,33162.88091693889,-2166.8451627308327,6403.372455045278,5461.134667531809,0.0,0.0,0.0,2019-03-17T21:14:46.262073,1,EyesClosed
6845.378201648975,20522.589447807008,-3063.9994816779476,2342.306356704993,33247.012883068666,-2542.198007368804,6493.80761311145,5498.596191238903,0.0,0.0,0.0,2019-03-17T21:14:46.269450,1,EyesClosed
6942.541234796195,20612.2646465617,-2936.728648749429,2464.592750619978,33353.921276798406,-2492.979466078218,6616.809262849005,5615.182890317785,0.0,0.0,0.0,2019-03-17T21:14:46.270109,1,EyesClosed
6860.219759967299,20593.243312030234,-3046.9003971696375,2393.7377206966544,33274.17025258187,-2120.9123278751767,6529.659811217763,5570.725270596179,0.0,0.0,0.0,2019-03-17T21:14:46.277195,1,EyesClosed
6767.705889666783,20521.024825695138,-3169.8573434182817,2278.760347218555,33168.580611774996,-2109.9823248365315,6411.441434793644,5460.709984387157,0.0,0.0,0.0,2019-03-17T21:14:46.277991,1,EyesClosed
6824.725189772272,20528.780881021128,-3085.501859843953,2322.770932051055,33235.07705152954,-2476.6179891369334,6478.921351304216,5479.574856707437,-0.006,1.012,0.242,2019-03-17T21:14:46.284453,1,EyesClosed
6906.420815756419,20604.08390809106,-2965.3612333966776,2425.9242327122965,33334.20703818882,-2550.9151877063737,6591.372977658865,5573.653349119824,0.0,0.0,0.0,2019-03-17T21:14:46.285097,1,EyesClosed
6871.842667084059,20636.091606151058,-3028.8625393942048,2397.8727934208864,33295.516168536684,-2174.2659418899943,6545.2166253586565,5571.485229907659,0.0,0.0,0.0,2019-03-17T21:14:46.292248,1,EyesClosed
6762.296767508598,20547.690456830318,-3184.8330122033376,2258.286149297494,33166.50189954065,-2076.0523767533755,6397.6504084647195,5444.907301057256,0.0,0.0,0.0,2019-03-17T21:14:46.292893,1,EyesClosed
6786.637817220428,20515.168668647846,-3135.167436023645,2270.02081513653,33201.41532437984,-2425.1866251452716,6425.925365200683,5431.339792172885,0.0,0.0,0.0,2019-03-17T21:14:46.299985,1,EyesClosed
6874.815449096614,20569.68457337434,-2995.603143644708,2382.0924618354397,33312.97288095628,-2597.2056504733146,6547.161227126268,5527.228775886152,0.0,0.0,0.0,2019-03-17T21:14:46.300670,1,EyesClosed
6854.542416875651,20604.150963324424,-3019.944193356537,2388.1944880717383,33304.121590151975,-2259.7390126870887,6541.170959612246,5560.331709424461,0.0,0.0,0.0,2019-03-17T21:14:46.307354,1,EyesClosed
6781.563971229073,20585.59901542652,-3135.368601723743,2299.078082928429,33224.504676402175,-2022.2070243605406,6446.600728821842,5498.931467405733,0.0,0.0,0.0,2019-03-17T21:14:46.308061,1,EyesClosed
6755.323023238543,20522.96942746275,-3156.8039246563826,2246.1268003138066,33206.51152211565,-2354.957444066697,6418.124606385781,5436.547748630971,0.0,0.0,0.0,2019-03-17T21:14:46.314825,1,EyesClosed
6832.972983476279,20554.39598016691,-3027.2979172823334,2341.3228799489593,33308.748401254226,-2619.0209530616944,6533.258442075067,5515.985848425133,0.0,0.0,0.0,2019-03-17T21:14:46.315471,1,EyesClosed
6851.50257962973,20601.89343713444,-3015.339733998744,2374.2917030205376,33327.41210787441,-2343.602757883401,6558.650023776296,5568.445392661738,-0.01,1.006,0.242,2019-03-17T21:14:46.321794,1,EyesClosed
6758.519322695652,20557.25700345719,-3161.631901458729,2261.862428410343,33218.58146412152,-2061.9484260020768,6435.514263572009,5481.541810219504,0.0,0.0,0.0,2019-03-17T21:14:46.329621,1,EyesClosed
6706.730330792705,20494.470953282234,-3206.6706665361726,2193.95782875512,33173.78856823308,-2316.2218709256495,6380.238399534035,5400.337922613374,0.0,0.0,0.0,2019-03-17T21:14:46.330275,1,EyesClosed
6806.977904674757,20551.82552955455,-3057.137496130168,2305.0907021869066,33293.72802898026,-2624.9218135978954,6509.699703419174,5483.2405427981075,0.0,0.0,0.0,2019-03-17T21:14:46.336696,1,EyesClosed
6866.724117603793,20634.638742761465,-2982.192096971524,2394.47532826368,33368.49461418326,-2402.723121967688,6588.40019564631,5582.079956779476,0.0,0.0,0.0,2019-03-17T21:14:46.337613,1,EyesClosed
6765.917750110359,20584.280262503657,-3124.9750405520253,2291.3667310913484,33260.17806055285,-2071.8949522846883,6464.0350894969815,5504.050016885998,0.0,0.0,0.0,2019-03-17T21:14:46.344447,1,EyesClosed
6720.499005377174,20526.456299597776,-3186.5988000153066,2219.4388174341702,33203.7846092921,-2223.7080006251335,6397.9409811426385,5424.589565347382,0.0,0.0,0.0,2019-03-17T21:14:46.345094,1,EyesClosed
6788.537715499129,20537.431006125335,-3075.309464372333,2287.723396745133,33293.61627025798,-2594.1434614829377,6487.392662452778,5467.929597846222,0.0,0.0,0.0,2019-03-17T21:14:46.352309,1,EyesClosed
6880.112812532522,20629.78841421466,-2961.673195561552,2402.209031845216,33394.08736158459,-2463.3857564193913,6596.424471905765,5584.829221347478,0.0,0.0,0.0,2019-03-17T21:14:46.353281,1,EyesClosed
6780.804011917593,20594.584416697555,-3090.2180779240225,2310.768045278555,33295.247947603224,-2104.0144090669646,6488.778470609006,5522.669020017269,0.0,0.0,0.0,2019-03-17T21:14:46.360395,1,EyesClosed
6703.064644702035,20530.613724066465,-3194.8912972082258,2209.9840295295753,33206.4891703712,-2172.410747100204,6387.234495548546,5420.946231001167,-0.014,1.008,0.244,2019-03-17T21:14:46.361252,1,EyesClosed
6765.5154187101625,20544.06947422856,-3096.431862882598,2268.1656203467396,33287.53659576614,-2549.2164551277706,6467.544313376465,5456.574911662926,0.0,0.0,0.0,2019-03-17T21:14:46.367012,1,EyesClosed
6857.761068077215,20608.263684304202,-2980.314550437278,2383.4782699916686,33390.689896427386,-2534.7325247207314,6579.638311819829,5564.2432647041405,0.0,0.0,0.0,2019-03-17T21:14:46.367691,1,EyesClosed
6786.369596286964,20570.623346641463,-3086.731205788995,2319.2840599160268,33311.341203611046,-2169.8402964878437,6494.6793311452075,5525.462988074182,0.0,0.0,0.0,2019-03-17T21:14:46.375095,1,EyesClosed
6698.393130110876,20502.830505708516,-3210.6269253047617,2206.184232972173,33206.735039560204,-2136.7597146939893,6374.985739587038,5416.922916999211,0.0,0.0,0.0,2019-03-17T21:14:46.375957,1,EyesClosed
6727.785674069604,20490.604101491466,-3149.5172559639523,2224.244442492061,33249.96331333677,-2524.7636466936647,6413.408388305711,5408.0492744504545,0.0,0.0,0.0,2019-03-17T21:14:46.382032,1,EyesClosed
6832.011858464702,20605.13444008046,-3005.9072978386043,2352.766973110077,33371.445044451364,-2603.9782290432727,6547.071820148447,5523.071351417465,0.0,0.0,0.0,2019-03-17T21:14:46.382832,1,EyesClosed
6803.245163350722,20615.706815207817,-3054.6341007511737,2343.4239439277585,33342.45483189283,-2228.8041983609437,6517.3887035118,5538.516406836082,0.0,0.0,0.0,2019-03-17T21:14:46.390126,1,EyesClosed
6691.866420729926,20507.569075533043,-3201.3509513558092,2217.918898811209,33219.00614726617,-2099.253487497984,6380.126640811759,5427.629402593303,0.0,0.0,0.0,2019-03-17T21:14:46.396622,1,EyesClosed
6703.958714480247,20463.53613895609,-3174.372395798254,2209.4922911515587,33233.937112562315,-2448.7677155456204,6391.615437461786,5399.265038879519,0.0,0.0,0.0,2019-03-17T21:14:46.397371,1,EyesClosed
6826.759198517704,20551.803177810096,-3011.1599577856014,2346.4190776847695,33367.73465487178,-2608.8732610789853,6537.304107821478,5519.3386100934285,-0.006,1.012,0.244,2019-03-17T21:14:46.404588,1,EyesClosed
6811.336494843543,20580.994556068727,-3034.1822545745677,2354.8903888333307,33358.07870126709,-2285.398815321781,6527.759912939062,5551.078087219964,0.0,0.0,0.0,2019-03-17T21:14:46.405416,1,EyesClosed
6718.062665231546,20539.375607892944,-3172.0254626304463,2243.958681101642,33250.45505171479,-2056.2710829104285,6405.920553913183,5464.733298389113,0.0,0.0,0.0,2019-03-17T21:14:46.412574,1,EyesClosed
6701.544726079074,20493.845104437485,-3186.2411721040216,2200.372779413793,33232.461897428264,-2363.406403470803,6376.036271576438,5407.959867472633,0.0,0.0,0.0,2019-03-17T21:14:46.413217,1,EyesClosed
6781.541619484618,20528.19973566529,-3057.0033856634363,2297.535812561013,33335.07875622258,-2641.99854636175,6482.519982161521,5480.983016608121,0.0,0.0,0.0,2019-03-17T21:14:46.419230,1,EyesClosed
6808.207250619799,20582.201550269314,-3035.277490052878,2345.3908974398255,33367.64524789396,-2380.6843019347552,6513.611258698852,5543.031459216054,0.0,0.0,0.0,2019-03-17T21:14:46.419888,1,EyesClosed
6729.953793281769,20560.229785469746,-3164.0905933488125,2252.854675394854,33276.651296216405,-2066.7316993155123,6415.822376706884,5481.720624175146,0.0,0.0,0.0,2019-03-17T21:14:46.428696,1,EyesClosed
6702.349388879466,20510.363043589958,-3199.5851635438403,2190.605067086824,33247.079938302035,-2284.8623734548537,6377.422079732666,5413.838376264379,0.0,0.0,0.0,2019-03-17T21:14:46.429612,1,EyesClosed
6791.264628322677,20539.53207010413,-3068.4251270800983,2275.988730906097,33352.848393064545,-2618.9986013172393,6488.957284564649,5477.049109583987,0.0,0.0,0.0,2019-03-17T21:14:46.436893,1,EyesClosed
6838.136236445455,20602.809858657107,-3011.0705508077804,2342.1051910048955,33406.693745457385,-2443.7609247876317,6552.547997539998,5555.056697733009,0.0,0.0,0.0,2019-03-17T21:14:46.437551,1,EyesClosed
6748.796313857593,20580.949852579815,-3144.689279161606,2246.238559036083,33307.38494484245,-2095.811318851867,6445.0808101988805,5490.013121368065,0.0,1.01,0.24,2019-03-17T21:14:46.443099,1,EyesClosed
6702.8858307463925,20529.652599054887,-3221.0204864764796,2160.4525638166147,33244.844763856505,-2238.5495589434577,6367.6543674056975,5400.159108657731,0.0,0.0,0.0,2019-03-17T21:14:46.443799,1,EyesClosed
6775.685462437327,20538.97327649275,-3111.720456090028,2228.2230530051056,33328.57439858608,-2617.188110016359,6458.380098149789,5439.900510299267,0.0,0.0,0.0,2019-03-17T21:14:46.449208,1,EyesClosed
6869.495733916251,20632.135347382467,-2987.5788673852526,2351.2470544871157,33433.448783570384,-2501.718998160243,6573.558637327986,5562.3657181698945,0.0,0.0,0.0,2019-03-17T21:14:46.456810,1,EyesClosed
6790.482317266741,20617.98669314226,-3100.9022117736595,2273.1947628491835,33349.24976220724,-2126.030877355442,6475.3674239358215,5515.717627491668,0.0,0.0,0.0,2019-03-17T21:14:46.457720,1,EyesClosed
6725.192871712789,20559.089846502524,-3199.5851635438403,2171.1590494107068,33269.2528688017,-2160.4972673055254,6375.924512854161,5420.7897687899795,0.0,0.0,0.0,2019-03-17T21:14:46.465026,1,EyesClosed
6775.618407203961,20559.64864011391,-3113.6203543687293,2209.7158085961114,33339.52675336919,-2547.808295227086,6441.526882830487,5438.201777720664,0.0,0.0,0.0,2019-03-17T21:14:46.465790,1,EyesClosed
6865.40536468093,20633.007065416226,-2990.3281319532553,2318.4793971156355,33443.12708891954,-2558.0230424431616,6558.20298888719,5546.630090073359,0.0,0.0,0.0,2019-03-17T21:14:46.471951,1,EyesClosed
6831.944803231336,20649.94968771335,-3055.08113564028,2288.572763034435,33403.13981808899,-2157.8821132042544,6514.594735454886,5554.140276210342,0.0,0.0,0.0,2019-03-17T21:14:46.472908,1,EyesClosed
6761.134476796923,20591.097544562526,-3170.9972823855023,2185.419462373193,33310.111857666,-2087.1388420032076,6405.853498679817,5463.571007677438,0.0,0.0,0.0,2019-03-17T21:14:46.480630,1,EyesClosed
6802.686369739338,20571.562119908587,-3109.4182264111314,2208.86644230681,33361.65498037994,-2455.361480159936,6452.501589358043,5466.387327478806,-0.01,1.016,0.242,2019-03-17T21:14:46.481096,1,EyesClosed
6872.535571162173,20618.232562331268,-3006.1978705165234,2293.467795070147,33448.625618055536,-2595.395159172435,6552.995032429103,5542.405610371306,0.0,0.0,0.0,2019-03-17T21:14:46.487421,1,EyesClosed
6813.772834989171,20614.879800662973,-3090.2851331573884,2245.0315648354967,33384.47611146881,-2270.1549256032617,6491.192459010179,5524.814787484978,0.0,0.0,0.0,2019-03-17T21:14:46.488068,1,EyesClosed
6735.3405636954985,20566.130646005946,-3215.9913439740353,2144.404011297704,33286.91074692139,-2095.453690940582,6384.060547835893,5445.108466757353,0.0,0.0,0.0,2019-03-17T21:14:46.495646,1,EyesClosed
6769.33756701202,20559.24630871371,-3170.2149713295667,2156.675119003668,33329.89315150895,-2410.099197637939,6420.672705253685,5440.705173099658,0.0,0.0,0.0,2019-03-17T21:14:46.496288,1,EyesClosed
6865.494771658751,20617.427899530878,-3031.656507451118,2265.9751493901194,33440.95896970737,-2620.1832437733706,6543.093209635403,5532.280270133051,0.0,0.0,0.0,2019-03-17T21:14:46.502183,1,EyesClosed
6879.9787020657905,20664.880653009495,-3032.8411499072495,2295.3229898599375,33452.67128380195,-2294.1606991482618,6559.611148787874,5582.884619579866,0.0,0.0,0.0,2019-03-17T21:14:46.502882,1,EyesClosed
6785.922561397858,20611.527038994675,-3172.8524771752927,2187.028787973975,33350.16618372991,-2040.9154344696326,6442.4209526087,5499.244391828107,0.0,0.0,0.0,2019-03-17T21:14:46.509005,1,EyesClosed
6741.353182953976,20534.21235492377,-3214.806701517904,2117.447807484604,33308.92721520987,-2356.566769667479,6388.106213582303,5413.1007686973535,0.0,0.0,0.0,2019-03-17T21:14:46.518546,1,EyesClosed
6821.148910659423,20567.896433817918,-3092.006217480447,2201.669180592201,33400.122332587525,-2667.09955538506,6487.169145008224,5469.56127519146,0.0,0.0,0.0,2019-03-17T21:14:46.519271,1,EyesClosed
6867.864056571014,20646.328705111588,-3039.9713563884925,2269.394966291781,33448.93854247791,-2406.14293886935,6542.802636957484,5548.775857541068,-0.02,1.014,0.256,2019-03-17T21:14:46.525175,1,EyesClosed
6782.256875307188,20609.157754082415,-3167.778631183938,2171.8743052332766,33351.90961979743,-2085.730682102523,6433.010868193015,5478.591379951404,0.0,0.0,0.0,2019-03-17T21:14:46.525808,1,EyesClosed
6750.807970858571,20553.457206899788,-3208.816434003882,2105.89195560121,33312.168218155886,-2297.044074182996,6380.2160477895795,5399.801480746446,0.0,0.0,0.0,2019-03-17T21:14:46.531904,1,EyesClosed
6839.812617279604,20594.874989375472,-3074.728319016495,2194.9189537666985,33421.33413807561,-2640.5680347166103,6490.968941565627,5461.60405416537,0.0,0.0,0.0,2019-03-17T21:14:46.532640,1,EyesClosed
6888.718234147816,20654.71060928233,-3008.343637984233,2270.5125535145467,33487.24943247431,-2473.600503635467,6564.841456990416,5546.183055184252,0.0,0.0,0.0,2019-03-17T21:14:46.539819,1,EyesClosed
6803.558087773095,20619.283094320668,-3142.722325649539,2177.7081105361117,33386.93480335889,-2116.710199917579,6455.407316137233,5482.502935231082,0.0,0.0,0.0,2019-03-17T21:14:46.540466,1,EyesClosed
6747.81283710156,20558.64281161342,-3219.25469866451,2091.9444670610987,33320.84069500455,-2227.708962882634,6378.316149510879,5395.129966155287,0.0,0.0,0.0,2019-03-17T21:14:46.547747,1,EyesClosed
6793.209230090289,20548.02573299715,-3137.7378866360054,2131.015316368975,33386.979506847805,-2627.872243865996,6446.265452655012,5412.318457641418,0.0,0.0,0.0,2019-03-17T21:14:46.548454,1,EyesClosed
6878.257617742732,20622.12176586649,-3043.9052634126265,2228.2677564940163,33468.406911898484,-2562.202818656304,6541.975622412637,5512.744845479113,0.0,0.0,0.0,2019-03-17T21:14:46.554326,1,EyesClosed
6818.645515280427,20616.690291963852,-3146.9244536071365,2168.47684007607,33392.09805632807,-2170.6896627771453,6461.486990629076,5485.185144565719,0.0,0.0,0.0,2019-03-17T21:14:46.555002,1,EyesClosed
6729.260889203655,20536.91691600286,-3271.2225045230994,2050.0349462073978,33286.46371203229,-2200.8198143028994,6343.425076416144,5372.4205937886945,-0.032,1.01,0.256,2019-03-17T21:14:46.562655,1,EyesClosed
6791.711663211783,20538.526241603642,-3179.848573189804,2099.678170642635,33357.944590800354,-2580.486545620745,6415.531804028965,5397.1863266451755,0.0,0.0,0.0,2019-03-17T21:14:46.563496,1,EyesClosed
6897.882449374491,20628.2684955917,-3035.724524941984,2234.213320519128,33479.58278412614,-2592.1541562264156,6550.335174838922,5526.9158514637775,0.0,0.0,0.0,2019-03-17T21:14:46.569459,1,EyesClosed
6836.0128207222015,20632.51532703821,-3121.1305405057124,2191.320322909394,33424.2398648548,-2209.2687737070055,6492.175935766213,5517.371656581361,0.0,0.0,0.0,2019-03-17T21:14:46.577247,1,EyesClosed
6747.991651057202,20571.78563735314,-3251.26239672451,2078.55577213237,33316.92913972487,-2125.449731999604,6373.577579686354,5414.240707664574,0.0,0.0,0.0,2019-03-17T21:14:46.578160,1,EyesClosed
6792.829250434548,20549.54565162011,-3196.455919320097,2093.5314409174252,33361.00677979073,-2496.622800424433,6411.866117938294,5405.903506982745,0.0,0.0,0.0,2019-03-17T21:14:46.584078,1,EyesClosed
6904.409158755441,20614.768041940697,-3055.729336229484,2213.180328986684,33477.19114746942,-2628.4980927107445,6543.383782313322,5513.66126700178,0.0,0.0,0.0,2019-03-17T21:14:46.584787,1,EyesClosed
6888.785289381181,20652.766007514718,-3085.1889354215787,2217.4718639221032,33465.45648163038,-2263.158829588751,6526.776436183029,5543.009107471598,0.0,0.0,0.0,2019-03-17T21:14:46.592077,1,EyesClosed
6771.371575757454,20584.570835181577,-3235.2138442055993,2089.016388537453,33341.85133479254,-2092.7491298614896,6387.368606015278,5429.909280527745,0.0,0.0,0.0,2019-03-17T21:14:46.592676,1,EyesClosed
6771.975072857746,20544.471805628757,-3222.3839428882534,2065.7035190705683,33342.05250049263,-2434.9319857277856,6383.010015846493,5383.909390438723,0.0,0.0,0.0,2019-03-17T21:14:46.600156,1,EyesClosed
6885.186658523877,20605.112088336,-3064.960606689526,2196.9082590232206,33470.19505145491,-2648.0558691091383,6525.43533151571,5490.214287068163,-0.032,1.01,0.26,2019-03-17T21:14:46.600811,1,EyesClosed
6906.0408361006785,20659.292716895667,-3052.3542228167325,2240.0694775664183,33498.67117389097,-2331.3540019218926,6555.274910363545,5551.011031986598,0.0,0.0,0.0,2019-03-17T21:14:46.607001,1,EyesClosed
6775.886628137426,20572.63500364244,-3231.5258063704737,2092.5926676503027,33354.41301517642,-2103.343856733305,6397.136318342247,5426.780036304001,0.0,0.0,0.0,2019-03-17T21:14:46.607787,1,EyesClosed
6759.569854685052,20523.12588967394,-3249.7648298460044,2048.895007240177,33335.32462541159,-2376.169249554783,6366.983815072038,5365.178628585176,0.0,0.0,0.0,2019-03-17T21:14:46.614723,1,EyesClosed
6864.578350136084,20587.185989282847,-3102.064502485335,2163.894732462732,33457.74512979331,-2670.1393926309815,6499.440252714187,5454.853827339867,0.0,0.0,0.0,2019-03-17T21:14:46.615370,1,EyesClosed
6893.993245839268,20632.872954949493,-3063.7312607444837,2219.550576156447,33496.43599944544,-2443.8726835099083,6544.76959046955,5524.255993873596,0.0,0.0,0.0,2019-03-17T21:14:46.622773,1,EyesClosed
6819.092550169534,20599.390041755443,-3186.5093930374856,2133.965746637076,33404.100943100566,-2103.70148464459,6439.448170596143,5464.621539666837,0.0,0.0,0.0,2019-03-17T21:14:46.623484,1,EyesClosed
6779.887590394926,20548.02573299715,-3235.9514517726248,2068.9892255054983,33358.995122789755,-2287.9022107007754,6383.6805681801525,5390.1455271417535,0.0,0.0,0.0,2019-03-17T21:14:46.629795,1,EyesClosed
6874.4578211853295,20585.35314623751,-3105.32785717581,2162.4418690731372,33463.10954846258,-2632.3425927570574,6493.986427067092,5457.513684930049,0.0,0.0,0.0,2019-03-17T21:14:46.630831,1,EyesClosed
6936.6180225155385,20656.252879649746,-3032.952908629526,2245.925634613709,33526.521447482286,-2483.368215962436,6569.602378559396,5549.66992731928,0.0,0.0,0.0,2019-03-17T21:14:46.636876,1,EyesClosed
6853.4471813973405,20633.74467298325,-3166.0351951164243,2156.317491092383,33426.3409288336,-2113.6033074382913,6463.029260996493,5495.645760970803,-0.022,1.004,0.252,2019-03-17T21:14:46.644108,1,EyesClosed
6783.508572996685,20562.867291315473,-3271.2001527786438,2053.231245664507,33338.63268359097,-2216.7789598439886,6362.893445836717,5395.420538833206,0.0,0.0,0.0,2019-03-17T21:14:46.644752,1,EyesClosed
6851.50257962973,20575.31721297708,-3165.141125338212,2121.7840459089334,33426.117411389045,-2591.818880059586,6455.7649440485175,5440.593414377381,0.0,0.0,0.0,2019-03-17T21:14:46.652452,1,EyesClosed
6942.697697007382,20655.962306971825,-3051.147228616146,2233.900396096754,33524.889770137044,-2538.5770247670443,6567.322500624955,5550.586348841947,0.0,0.0,0.0,2019-03-17T21:14:46.653367,1,EyesClosed
6894.641446428472,20664.433618120387,-3133.312241233855,2186.984084485064,33469.34568516561,-2133.1610838366846,6502.52479344902,5533.688430033735,0.0,0.0,0.0,2019-03-17T21:14:46.659519,1,EyesClosed
6777.160677571378,20567.762323351184,-3291.31672278842,2032.4217715766158,33334.69877656684,-2172.1872296556508,6350.599986386298,5385.138736383765,0.0,0.0,0.0,2019-03-17T21:14:46.660357,1,EyesClosed
6835.92341374438,20580.145189779425,-3207.274163636466,2074.063071496853,33401.37403027702,-2555.944330208818,6417.252888352024,5399.868535979812,0.0,0.0,0.0,2019-03-17T21:14:46.667473,1,EyesClosed
6920.345952552075,20639.17614688589,-3075.2871126278774,2192.4155583877036,33512.2610345198,-2610.974325057784,6545.127218380835,5507.872165187856,0.0,0.0,0.0,2019-03-17T21:14:46.668179,1,EyesClosed
6894.1273563059995,20647.111016167524,-3124.0362672849024,2183.5195640944917,33486.91415630748,-2215.013172032019,6518.707456434662,5523.4513310732045,0.0,0.0,0.0,2019-03-17T21:14:46.675658,1,EyesClosed
6809.034265164646,20566.845901828518,-3253.095239769845,2067.3798999047162,33385.0796085691,-2113.7821213939337,6397.8292224203615,5419.135739700287,0.0,0.0,0.0,2019-03-17T21:14:46.676343,1,EyesClosed
6854.028326753179,20557.346410435013,-3189.593933772318,2089.374016448738,33434.67812951543,-2468.1243262439166,6441.638641552764,5416.967620488122,-0.024,1.008,0.244,2019-03-17T21:14:46.685838,1,EyesClosed
6944.530540052717,20612.55521923962,-3058.8585804532268,2194.6954363221453,33540.915970911505,-2637.2376247927696,6560.572273799453,5508.788586710523,0.0,0.0,0.0,2019-03-17T21:14:46.686790,1,EyesClosed
6915.808548427648,20638.863222463515,-3099.8963832731706,2186.693511807145,33516.798438644226,-2301.760292263066,6537.684087477218,5524.412456084783,0.0,0.0,0.0,2019-03-17T21:14:46.692015,1,EyesClosed
6822.914698471392,20585.73312589325,-3241.5393878864516,2070.129164472719,33403.117466344534,-2103.2320980110285,6409.832109192862,5425.0142484920325,0.0,0.0,0.0,2019-03-17T21:14:46.692707,1,EyesClosed
6851.793152307649,20567.427047184356,-3216.1254544407675,2063.4683446250374,33421.04356539769,-2407.9981336591404,6423.310211099411,5400.270867380008,0.0,0.0,0.0,2019-03-17T21:14:46.698104,1,EyesClosed
6924.2351560872985,20607.660187203906,-3096.521269860419,2153.054136401908,33518.765392156296,-2671.927532187406,6527.894023405794,5470.65651066977,0.0,0.0,0.0,2019-03-17T21:14:46.704397,1,EyesClosed
6948.956185454868,20672.793170546673,-3073.3872143491762,2203.7478928265446,33550.86249719411,-2365.6862814052442,6562.762744756073,5543.322031893973,0.0,0.0,0.0,2019-03-17T21:14:46.705004,1,EyesClosed
6864.108963502523,20632.64943750494,-3208.525861325963,2099.767577620456,33454.61588556956,-2072.051414495875,6449.998193979049,5472.17642929273,0.0,0.0,0.0,2019-03-17T21:14:46.712553,1,EyesClosed
6838.091532956545,20566.778846595153,-3243.618100120795,2038.6579082796466,33423.52460903223,-2330.236414699127,6406.9263824136715,5404.0036087040435,0.0,0.0,0.0,2019-03-17T21:14:46.713198,1,EyesClosed
6927.900842177969,20597.49014347674,-3116.9954677814803,2127.126112833752,33523.72747942537,-2652.7273837002977,6516.785206411506,5472.556408948471,0.0,0.0,0.0,2019-03-17T21:14:46.719200,1,EyesClosed
6980.963883514868,20677.24116769328,-3058.2997868418443,2199.8363375468657,33582.445512109465,-2423.9572792002296,6581.672320565262,5561.33753792495,-0.026000000000000002,1.008,0.248,2019-03-17T21:14:46.719845,1,EyesClosed
6897.144841807466,20649.74852201325,-3196.500622809008,2101.421606710149,33481.281516704745,-2084.121356501741,6470.271226200012,5495.243429570607,0.0,0.0,0.0,2019-03-17T21:14:46.727304,1,EyesClosed
6857.381088421475,20592.41629748539,-3264.5393329309622,2022.7211144830126,33421.915283431445,-2258.7555359310554,6399.729120699063,5409.748007029058,0.0,0.0,0.0,2019-03-17T21:14:46.728204,1,EyesClosed
6931.790045713192,20604.75446042472,-3160.6707764471507,2088.7258158595346,33503.61090941559,-2637.975232359795,6486.453889185655,5446.941309802689,0.0,0.0,0.0,2019-03-17T21:14:46.735344,1,EyesClosed
6999.873459324058,20680.14689447247,-3077.365824862221,2181.709072793612,33575.40471260604,-2512.4031320098798,6567.031927947036,5539.745752781124,0.0,0.0,0.0,2019-03-17T21:14:46.736173,1,EyesClosed
6929.867795690036,20674.693068825374,-3180.4744220345524,2118.632449940735,33499.6099471581,-2121.1358453197295,6484.732804862596,5503.938258163722,0.0,0.0,0.0,2019-03-17T21:14:46.742432,1,EyesClosed
6848.172169705888,20591.298710262625,-3290.0873768433785,2005.5773264857921,33405.911434401445,-2212.398017930748,6378.360852999789,5392.581867287382,0.0,0.0,0.0,2019-03-17T21:14:46.743097,1,EyesClosed
6924.592783998583,20612.33170179507,-3175.8252591878486,2075.8065075643667,33498.22413900187,-2585.22511544527,6473.892208801772,5437.642984109281,0.0,0.0,0.0,2019-03-17T21:14:46.750091,1,EyesClosed
7004.276752981753,20684.4831328968,-3067.598112535252,2181.2620379045056,33593.71079131494,-2560.235865144237,6576.620826318363,5540.148084181319,0.0,0.0,0.0,2019-03-17T21:14:46.750750,1,EyesClosed
6966.90463625248,20701.157534260456,-3146.142142551201,2142.6158717412795,33541.49711626734,-2153.18824686864,6516.896965133783,5530.425075343261,0.0,0.0,0.0,2019-03-17T21:14:46.757090,1,EyesClosed
6880.112812532522,20630.816594459608,-3268.36148123282,2025.1351028841857,33436.130992905026,-2129.696563446112,6397.426891020166,5419.35925714484,0.0,0.0,0.0,2019-03-17T21:14:46.764762,1,EyesClosed
6905.750263422759,20604.374480768976,-3214.784349773449,2033.5840622882918,33469.56920261016,-2536.051277643595,6428.428760579677,5400.650847035748,-0.036000000000000004,1.01,0.244,2019-03-17T21:14:46.765478,1,EyesClosed
7012.502194941306,20688.037060265193,-3073.8566009827377,2161.1007644058186,33584.59127957717,-2605.364037199502,6560.907549966282,5517.103435647898,0.0,0.0,0.0,2019-03-17T21:14:46.771440,1,EyesClosed
6992.363273187074,20721.274104270233,-3118.001296281969,2156.965691681587,33562.708921755424,-2204.239631204561,6546.177750370235,5545.087819705942,0.0,0.0,0.0,2019-03-17T21:14:46.772103,1,EyesClosed
6881.319806733109,20641.679542264887,-3274.642321424761,2020.418884804116,33436.868600472044,-2090.4916036715035,6409.005094648015,5430.8257020504125,0.0,0.0,0.0,2019-03-17T21:14:46.779494,1,EyesClosed
6927.61026950005,20632.492975293753,-3211.58805031634,2045.2740246384174,33492.815016843684,-2423.979630944685,6456.211978937624,5438.157074231753,0.0,0.0,0.0,2019-03-17T21:14:46.780141,1,EyesClosed
7012.055160052199,20667.652269321952,-3083.84783075426,2142.727630463556,33597.71175357244,-2618.5739181725885,6567.747183769606,5521.707895005691,0.0,0.0,0.0,2019-03-17T21:14:46.787403,1,EyesClosed
7025.399151492018,20714.501525700274,-3080.875048741704,2170.2202761435838,33611.234558967895,-2265.885742412298,6582.231114176645,5573.183962486263,0.0,0.0,0.0,2019-03-17T21:14:46.788047,1,EyesClosed
6925.1739293544215,20652.520138325708,-3231.2128819480995,2043.6646990376353,33491.71978136537,-2053.0747834533195,6446.51132184402,5473.741051404602,0.0,0.0,0.0,2019-03-17T21:14:46.794647,1,EyesClosed
6907.381940767997,20604.016852857694,-3252.6482048807393,1987.8300413882782,33466.64112408651,-2383.277104291571,6412.5590220164095,5404.070663937409,0.0,0.0,0.0,2019-03-17T21:14:46.795386,1,EyesClosed
7007.540107672228,20661.483187852285,-3109.3288194333104,2101.2651444989615,33582.11023594263,-2642.7585056732305,6540.075724133936,5491.1083568463755,0.0,0.0,0.0,2019-03-17T21:14:46.802386,1,EyesClosed
7023.655715424504,20712.42281346593,-3093.593191336774,2141.5876914963355,33602.852654797156,-2367.206200028205,6563.053317433992,5547.054773218009,-0.036000000000000004,1.008,0.248,2019-03-17T21:14:46.803128,1,EyesClosed
6938.316755094142,20660.030324462692,-3221.8922045102368,2046.838646750289,33503.43209545995,-2059.445030623082,6445.907824743727,5474.7915833940015,0.0,0.0,0.0,2019-03-17T21:14:46.810368,1,EyesClosed
6904.900897133458,20597.08781207655,-3250.904768813225,1993.5297362243816,33474.978324768344,-2295.2782863710268,6404.400635290222,5405.322361626907,0.0,0.0,0.0,2019-03-17T21:14:46.811011,1,EyesClosed
7017.173709532465,20655.157644171435,-3098.823499539316,2105.869603856755,33601.84682629667,-2610.0802552795717,6534.331325808922,5488.493202745104,0.0,0.0,0.0,2019-03-17T21:14:46.817569,1,EyesClosed
7068.292149101752,20720.82706938113,-3043.659394223618,2176.568171568891,33652.361768765666,-2416.7153139967104,6594.524573627064,5562.857456547911,0.0,0.0,0.0,2019-03-17T21:14:46.823963,1,EyesClosed
6990.038691763722,20698.363566203545,-3176.9875498995248,2084.121356501741,33553.03061640628,-2062.417812635638,6483.414051939732,5495.265781315063,0.0,0.0,0.0,2019-03-17T21:14:46.824638,1,EyesClosed
6934.248737603276,20634.70579799483,-3254.816324092904,1998.3353612822727,33487.29413596322,-2214.0743987648966,6405.205298090613,5404.40594010424,0.0,0.0,0.0,2019-03-17T21:14:46.831462,1,EyesClosed
6995.33605519963,20642.774777743194,-3159.5308374799297,2054.3264811428166,33560.40669207653,-2605.6099063885104,6481.201229238657,5434.781960819002,0.0,0.0,0.0,2019-03-17T21:14:46.831836,1,EyesClosed
7062.659509499015,20712.80279312167,-3077.008196950936,2143.353479308305,33634.54742843478,-2510.2573645421703,6566.227265146646,5527.452293330704,0.0,0.0,0.0,2019-03-17T21:14:46.839637,1,EyesClosed
7000.119328513066,20708.66772039744,-3175.4452795321085,2085.775385591434,33565.30172411224,-2107.9483160910986,6491.125403776813,5500.697255217702,0.0,0.0,0.0,2019-03-17T21:14:46.840072,1,EyesClosed
6918.669571717927,20636.672751506896,-3283.448908740152,1976.8776866051778,33473.1007782341,-2166.800459241922,6389.559076971898,5393.721806254603,-0.038,1.006,0.252,2019-03-17T21:14:46.848087,1,EyesClosed
6967.597540330594,20628.35790256952,-3203.742588012527,2015.4120940461273,33533.07050860769,-2567.589589070033,6453.842694025361,5407.088149438876,0.0,0.0,0.0,2019-03-17T21:14:46.848713,1,EyesClosed
7089.995692967856,20735.42275851044,-3056.6681094966066,2158.575017282369,33661.74950143689,-2534.106675875983,6596.2233062056675,5545.557206339504,0.0,0.0,0.0,2019-03-17T21:14:46.854347,1,EyesClosed
7055.574006506683,20754.131168619537,-3126.204386497067,2130.188301824129,33620.42112593903,-2126.187339566629,6552.995032429103,5548.552340096515,0.0,0.0,0.0,2019-03-17T21:14:46.855122,1,EyesClosed
6953.717107023848,20664.031286720194,-3265.500457942541,1998.2683060489067,33501.755714625804,-2094.3584554622716,6421.969106432093,5428.277603182507,0.0,0.0,0.0,2019-03-17T21:14:46.862603,1,EyesClosed
6987.021206262256,20642.663019020918,-3208.6823235371503,2014.4286172900938,33544.894581424545,-2482.362387461947,6464.459772641632,5420.879175767801,0.0,0.0,0.0,2019-03-17T21:14:46.863260,1,EyesClosed
7085.570047565705,20713.540400688697,-3072.0014061929473,2136.9832321385425,33657.70383569048,-2577.357301397002,6589.987169502637,5530.2015578987075,0.0,0.0,0.0,2019-03-17T21:14:46.870392,1,EyesClosed
7053.517646016794,20727.510240973264,-3127.0314010419133,2123.259261042984,33625.51732367484,-2207.5923928728575,6549.374049827344,5540.081028947953,0.0,0.0,0.0,2019-03-17T21:14:46.871037,1,EyesClosed
6944.351726097075,20650.217908646813,-3283.3371500178755,1985.1925355425522,33493.53027266625,-2081.148574489185,6400.153803843714,5417.1464344437645,0.0,0.0,0.0,2019-03-17T21:14:46.877580,1,EyesClosed
6972.984310744323,20636.98567592927,-3239.3712686742865,1983.7620238974125,33523.90629338101,-2422.817340233009,6422.170272132191,5398.348617356851,0.0,0.0,0.0,2019-03-17T21:14:46.878313,1,EyesClosed
7061.050183898233,20695.48019116881,-3112.3910084236873,2078.7792895769226,33626.344338219686,-2637.5952527040545,6532.8337589304165,5476.691481672702,-0.026000000000000002,1.01,0.25,2019-03-17T21:14:46.884026,1,EyesClosed
7065.811105467214,20742.284744058223,-3117.5766131373184,2093.7102548730677,33631.26172199985,-2309.6504580557894,6537.840549688405,5517.930450192744,0.0,0.0,0.0,2019-03-17T21:14:46.892082,1,EyesClosed
6968.111630453066,20682.13619972899,-3260.7842398624707,1971.8932475916445,33520.66529043499,-2075.739452331001,6407.574583002875,5421.057989723443,0.0,0.0,0.0,2019-03-17T21:14:46.892709,1,EyesClosed
6970.592674087606,20631.911829937915,-3264.271111997499,1934.6775930735582,33515.97142409938,-2367.630883172856,6390.609608961297,5370.163067598709,0.0,0.0,0.0,2019-03-17T21:14:46.900291,1,EyesClosed
7066.995747923344,20686.71830734233,-3126.0255725414245,2033.9193384551215,33625.27145448583,-2652.1909418333703,6512.136043564802,5449.556463903959,0.0,0.0,0.0,2019-03-17T21:14:46.900905,1,EyesClosed
7111.945106022967,20740.451901012886,-3086.6194470667183,2094.3584554622716,33673.104187620185,-2379.857287389909,6564.506180823587,5525.910022963289,0.0,0.0,0.0,2019-03-17T21:14:46.908115,1,EyesClosed
7017.956020588401,20687.34415618708,-3235.236195950055,1981.2809802628733,33565.14526190105,-2076.7229290870346,6436.229519394579,5441.308670199951,0.0,0.0,0.0,2019-03-17T21:14:46.908843,1,EyesClosed
6966.792877530203,20614.5668762406,-3297.485804258085,1902.2228601244522,33506.76250538379,-2310.3210103894485,6368.816658117373,5353.48866623505,0.0,0.0,0.0,2019-03-17T21:14:46.914678,1,EyesClosed
7049.136704103555,20653.86124299303,-3168.4044800286865,1999.3188380383062,33609.781695578306,-2646.4018400194454,6484.844563584872,5425.863614781334,0.0,0.0,0.0,2019-03-17T21:14:46.915379,1,EyesClosed
7101.6186000846155,20719.932999602916,-3096.789490793883,2087.7199873590457,33673.886498676125,-2462.625797107911,6563.343890111911,5522.490206061627,0.0,0.0,0.0,2019-03-17T21:14:46.923134,1,EyesClosed
7026.740256159336,20702.163362760944,-3212.973858472569,2016.7979022023562,33589.66512556853,-2089.7986995933893,6469.80183956645,5477.518496217549,-0.022,1.016,0.248,2019-03-17T21:14:46.924083,1,EyesClosed
6966.6140635745605,20636.449234062344,-3300.1680135927218,1928.7543807929017,33515.14440955453,-2222.0092680465305,6387.145088570725,5386.055157906432,0.0,0.0,0.0,2019-03-17T21:14:46.929883,1,EyesClosed
7035.68095394146,20652.00604820324,-3199.3392943548315,1994.8484891472447,33594.47075062642,-2606.615734888999,6473.914560546227,5424.231937436097,0.0,0.0,0.0,2019-03-17T21:14:46.930658,1,EyesClosed
7118.31535319273,20722.27993277072,-3098.465871628031,2102.5615456773694,33681.59785051321,-2519.7345041912204,6573.715099539173,5530.626241043358,0.0,0.0,0.0,2019-03-17T21:14:46.937352,1,EyesClosed
7057.429201296473,20708.399499463976,-3201.418006589175,2043.709402526546,33611.659242112546,-2128.9366041346316,6495.104014289858,5504.005313397088,0.0,0.0,0.0,2019-03-17T21:14:46.937996,1,EyesClosed
6992.586790631627,20654.196519159857,-3293.775414678504,1957.8563520737116,33539.48545926636,-2144.672232231168,6408.535708014454,5422.779074046502,0.0,0.0,0.0,2019-03-17T21:14:46.944535,1,EyesClosed
7050.4331052819625,20658.376295373,-3204.5025473240075,2005.0632363633201,33613.469733413425,-2527.8258356840415,6481.961188550137,5443.700306856669,0.0,0.0,0.0,2019-03-17T21:14:46.952336,1,EyesClosed
7151.150065797576,20742.731778947327,-3077.969321962514,2126.9696506225646,33721.830990532755,-2541.88508294643,6604.78402433205,5557.403630900816,0.0,0.0,0.0,2019-03-17T21:14:46.953234,1,EyesClosed
7079.266855629308,20720.58120019212,-3178.9992069005025,2065.614112092747,33652.58528621022,-2172.969540711587,6528.162244339257,5527.876976475355,0.0,0.0,0.0,2019-03-17T21:14:46.959336,1,EyesClosed
6977.745232313304,20640.09256840856,-3320.217528369132,1937.583319852748,33535.238627819854,-2118.0960080738078,6397.203373575613,5410.709132040636,0.0,0.0,0.0,2019-03-17T21:14:46.960196,1,EyesClosed
7019.855918867102,20625.362768812513,-3260.4936671845517,1956.068212517287,33581.394980120065,-2493.9852945787065,6441.571586319397,5404.517698826516,-0.022,1.016,0.248,2019-03-17T21:14:46.966999,1,EyesClosed
7114.448501401962,20686.85241780906,-3130.6076801547624,2065.256484181462,33685.822330215255,-2628.7439618997532,6560.885198221827,5498.640894727814,0.0,0.0,0.0,2019-03-17T21:14:46.967972,1,EyesClosed
7115.40962641354,20739.28961030121,-3140.8000756263827,2084.5907431353025,33689.08568490573,-2241.8799688672984,6563.165076156268,5539.432828358749,0.0,0.0,0.0,2019-03-17T21:14:46.974985,1,EyesClosed
6997.124194756055,20650.307315624636,-3301.9561531491463,1941.3160611767844,33559.0208839203,-2095.386635707216,6413.3636848168,5410.709132040636,0.0,0.0,0.0,2019-03-17T21:14:46.975724,1,EyesClosed
7010.535241429239,20614.03043437367,-3284.8794203852917,1921.6912295450247,33567.00045669085,-2437.2789188955926,6415.88943194025,5368.732555953569,0.0,0.0,0.0,2019-03-17T21:14:46.983130,1,EyesClosed
7149.831312874712,20709.51708668674,-3114.715589847039,2066.485830126504,33709.51517933788,-2622.2843077521693,6576.889047251827,5493.857621414379,0.0,0.0,0.0,2019-03-17T21:14:46.983797,1,EyesClosed
7170.663138707058,20767.564567037174,-3109.3288194333104,2105.7131416455677,33729.40823190311,-2292.864297969854,6599.196088218223,5554.252034932618,0.0,0.0,0.0,2019-03-17T21:14:46.989628,1,EyesClosed
7041.112427844099,20688.70761259885,-3280.0290918384903,1964.8971515771332,33592.0791139697,-2064.451821381071,6445.8407695103615,5440.8616353108455,0.0,0.0,0.0,2019-03-17T21:14:46.990267,1,EyesClosed
7023.096921813121,20638.61735327451,-3298.804557180948,1912.5046625738935,33563.491232811364,-2353.437525443736,6411.396731304733,5376.622721746293,0.0,0.0,0.0,2019-03-17T21:14:46.997723,1,EyesClosed
7134.475664433917,20702.275121483224,-3145.046907072891,2027.3702773297166,33682.42486505805,-2632.90138636844,6546.825950959439,5467.996653079588,0.0,0.0,0.0,2019-03-17T21:14:46.998369,1,EyesClosed
7183.4483365354945,20780.43917184343,-3094.0849297147906,2096.9512578190875,33730.369356914685,-2375.7445664101324,6600.760710330094,5549.848741274923,-0.024,1.012,0.246,2019-03-17T21:14:47.004755,1,EyesClosed
7065.2299601113755,20713.87567685553,-3257.029146793979,1969.8145353573009,33603.14322747508,-2077.0358535094088,6455.206150437135,5449.1988359926745,0.0,0.0,0.0,2019-03-17T21:14:47.011780,1,EyesClosed
7043.146436589532,20668.79220828917,-3288.992141365068,1923.8369970127342,33572.67779978249,-2260.610730720846,6417.4317023076665,5391.419576575706,0.0,0.0,0.0,2019-03-17T21:14:47.012520,1,EyesClosed
7127.948955052967,20696.553074902666,-3162.302453792388,2010.517062010415,33671.74073120841,-2611.287249480158,6523.602488470375,5448.416524936739,0.0,0.0,0.0,2019-03-17T21:14:47.019278,1,EyesClosed
7143.729286638414,20726.169136305947,-3132.753447622472,2050.7949055188783,33696.953498954,-2497.650980669377,6558.96294819867,5493.4552900141825,0.0,0.0,0.0,2019-03-17T21:14:47.019945,1,EyesClosed
7086.352358621641,20723.397519993487,-3230.1847017031555,1993.7532536689346,33631.08290804421,-2106.0037143234867,6486.498592674565,5467.370804234839,0.0,0.0,0.0,2019-03-17T21:14:47.027267,1,EyesClosed
7044.465189512395,20677.196464204368,-3292.613123966828,1921.8253400117565,33579.49508184136,-2192.6837793211675,6423.623135521786,5394.951152199645,0.0,0.0,0.0,2019-03-17T21:14:47.027913,1,EyesClosed
7090.30861739023,20666.601737332552,-3217.4665591080857,1957.4093171846055,33636.04499531329,-2599.8655080634962,6482.743499606073,5405.657637793736,0.0,0.0,0.0,2019-03-17T21:14:47.035274,1,EyesClosed
7177.65923472157,20748.25265982779,-3111.7428078344833,2061.926074257621,33728.29064468034,-2536.4759607882456,6586.701463067707,5513.571860023959,0.0,0.0,0.0,2019-03-17T21:14:47.036039,1,EyesClosed
7129.066542275732,20752.2983255742,-3193.974875685558,2021.2011958600517,33678.222737100456,-2124.2427377990175,6529.726866451128,5506.598115753904,0.0,0.0,0.0,2019-03-17T21:14:47.042082,1,EyesClosed
7045.381611035063,20680.2810049392,-3307.253516585054,1913.7340085189353,33588.100503456655,-2130.0988948463078,6422.282030854468,5405.344713371363,-0.016,1.004,0.252,2019-03-17T21:14:47.042753,1,EyesClosed
7083.223114397898,20660.969097729816,-3246.1438472442446,1935.2810901738515,33638.99542558139,-2535.35837356548,6470.0253570110035,5401.902544725245,0.0,0.0,0.0,2019-03-17T21:14:47.049812,1,EyesClosed
7171.13252534062,20726.839688639604,-3132.4181714556426,2040.1778269026074,33732.671586593584,-2589.9189817808847,6576.754936785095,5499.557316250482,0.0,0.0,0.0,2019-03-17T21:14:47.050457,1,EyesClosed
7164.918740382045,20772.727820006352,-3161.6095497142733,2051.353699130261,33728.15653421361,-2166.9792731975645,6566.361375613377,5538.963441725188,0.0,0.0,0.0,2019-03-17T21:14:47.058049,1,EyesClosed
7059.664375742004,20688.417039920932,-3308.1475863632663,1921.2218429114632,33608.865274055635,-2088.636408881713,6431.960336203616,5420.365085645329,0.0,0.0,0.0,2019-03-17T21:14:47.058688,1,EyesClosed
7081.770251008303,20657.28105989469,-3270.55195218944,1920.104255688698,33630.188838265996,-2473.1311170019053,6448.232406167079,5393.744157999058,0.0,0.0,0.0,2019-03-17T21:14:47.065008,1,EyesClosed
7201.173269888553,20749.102026117092,-3114.6485346136733,2055.108792198753,33756.029159549376,-2601.8324615755632,6589.204858446701,5509.99558091111,0.0,0.0,0.0,2019-03-17T21:14:47.071396,1,EyesClosed
7198.133432642631,20795.124267950567,-3132.5522819223743,2069.749184816979,33746.68613036706,-2235.733239142089,6583.974550244159,5547.121828451375,0.0,0.0,0.0,2019-03-17T21:14:47.072203,1,EyesClosed
7091.426204612995,20722.14582230399,-3284.387682007275,1938.81266579779,33621.65047188407,-2059.9144172566434,6441.526882830487,5436.234824208596,0.0,0.0,0.0,2019-03-17T21:14:47.080977,1,EyesClosed
7085.033605698777,20678.001127004758,-3285.7958419079596,1903.586316536226,33617.873027071124,-2397.6045724874225,6426.84178672335,5385.853992206335,0.0,0.0,0.0,2019-03-17T21:14:47.081706,1,EyesClosed
7182.084880123721,20730.594781708096,-3150.0760495753348,2011.6346492331804,33731.9116272821,-2635.650650936443,6553.5538260404865,5475.998577594588,-0.018000000000000002,1.008,0.248,2019-03-17T21:14:47.088798,1,EyesClosed
7183.269522579852,20763.54125303522,-3152.2441687875,2032.131198898697,33734.77265057238,-2345.9720427956636,6562.673337778251,5517.349304836906,0.0,0.0,0.0,2019-03-17T21:14:47.089516,1,EyesClosed
7104.7925477972685,20726.1914880504,-3286.421690752708,1929.0896569597314,33632.5357714338,-2067.893990027188,6447.315984644411,5438.581757376404,0.0,0.0,0.0,2019-03-17T21:14:47.094628,1,EyesClosed
7088.408719111529,20672.971984502314,-3319.5693277799282,1870.7069004424693,33602.47267514142,-2337.9924700251186,6400.9361148996495,5365.469201263095,0.0,0.0,0.0,2019-03-17T21:14:47.095091,1,EyesClosed
7183.202467346486,20710.992301820792,-3183.067224391368,1971.4015092136276,33711.12450493866,-2641.23858705027,6513.655962187763,5442.515664400538,0.0,0.0,0.0,2019-03-17T21:14:47.101841,1,EyesClosed
7222.854462010201,20776.818189241672,-3120.9964300389806,2055.8463997657777,33774.35759000273,-2394.2741625635817,6584.890971766827,5540.2374911591405,0.0,0.0,0.0,2019-03-17T21:14:47.102185,1,EyesClosed
7125.467911418428,20730.30420903018,-3264.6734433976944,1950.5473316368261,33667.38214103963,-2066.3517196597722,6462.179894707191,5463.973339077633,0.0,0.0,0.0,2019-03-17T21:14:47.109912,1,EyesClosed
7083.290169631264,20670.312126912133,-3328.711191262149,1871.1539353315754,33609.22290196692,-2255.7827539184996,6392.397748517722,5375.303968823429,0.0,0.0,0.0,2019-03-17T21:14:47.110245,1,EyesClosed
7170.953711384977,20705.158496517957,-3197.238230376033,1964.8971515771332,33717.360641641695,-2605.3416854550464,6509.342075507889,5445.466094668638,0.0,0.0,0.0,2019-03-17T21:14:47.118200,1,EyesClosed
7245.4967791434265,20793.134962694046,-3106.1548717206565,2067.581065604814,33802.297270571864,-2457.686061583288,6608.2038412337115,5555.43667738875,0.0,0.0,0.0,2019-03-17T21:14:47.119141,1,EyesClosed
7167.243321805397,20760.92609893395,-3235.7949895614374,1984.0749483197867,33709.67164154907,-2089.2399059820063,6505.564630694942,5502.172470351752,-0.012,1.01,0.252,2019-03-17T21:14:47.124454,1,EyesClosed
7095.248352914853,20682.04679275117,-3335.3496593653754,1882.709787214969,33627.104297531165,-2178.602180314324,6412.111987127303,5401.611972047326,0.0,0.0,0.0,2019-03-17T21:14:47.125260,1,EyesClosed
7180.006167889377,20709.651197153475,-3218.4053323752087,1952.715450848991,33722.76976379988,-2549.0152894276725,6510.370255752833,5447.097772013876,0.0,0.0,0.0,2019-03-17T21:14:47.131845,1,EyesClosed
7244.937985532044,20770.87262521656,-3126.9419940640923,2036.9815274454986,33797.71516295853,-2534.4419520428123,6596.200954461212,5527.698162519713,0.0,0.0,0.0,2019-03-17T21:14:47.140205,1,EyesClosed
7196.099423897198,20780.26035788779,-3202.7591112564937,1999.8329281607782,33747.490793167446,-2129.651859957202,6543.0485061464915,5522.110226405886,0.0,0.0,0.0,2019-03-17T21:14:47.140813,1,EyesClosed
7123.679771862004,20720.134165303014,-3311.9920864095793,1898.2218978669523,33657.726187434935,-2105.020237567453,6440.8563304968275,5427.584699104393,0.0,0.0,0.0,2019-03-17T21:14:47.147097,1,EyesClosed
7177.055737621276,20713.920380344436,-3240.555911130418,1926.9215377475666,33710.40924911609,-2493.0912248004943,6488.2196769976235,5431.719771828624,0.0,0.0,0.0,2019-03-17T21:14:47.147747,1,EyesClosed
7257.499665915927,20768.12336064856,-3132.1275987777235,2022.229376104996,33797.17872109159,-2579.726586309265,6583.058128721492,5518.042208915021,0.0,0.0,0.0,2019-03-17T21:14:47.154346,1,EyesClosed
7217.087711940731,20778.58397705364,-3195.494794308519,1999.2964862938509,33755.5150694269,-2202.8091195594216,6538.578157255431,5523.47368281766,0.0,0.0,0.0,2019-03-17T21:14:47.155243,1,EyesClosed
7115.119053735621,20694.96610104634,-3346.905511248769,1868.5834847192152,33633.87687610112,-2102.7180078885567,6402.299571311423,5409.479786095594,0.0,0.0,0.0,2019-03-17T21:14:47.162664,1,EyesClosed
7115.968420024922,20655.2246994048,-3329.8287784849144,1848.623376920626,33641.52117270484,-2489.202021265271,6404.177117845669,5368.307872808919,-0.01,1.02,0.248,2019-03-17T21:14:47.163374,1,EyesClosed
7241.317002930285,20755.29345933121,-3155.9322066226255,1996.8824978926777,33786.427532008594,-2627.8051886326302,6563.612111045374,5503.915906419266,0.0,0.0,0.0,2019-03-17T21:14:47.170543,1,EyesClosed
7256.270319970885,20814.905561793516,-3154.144067066201,2030.1195418977193,33804.86772118422,-2256.8779893968094,6585.8968002673155,5564.600892615425,0.0,0.0,0.0,2019-03-17T21:14:47.171216,1,EyesClosed
7162.7282694254245,20754.265279086267,-3298.6257432253055,1911.9905724514215,33696.08178092024,-2045.1846176605961,6468.170162221213,5469.248350769085,0.0,0.0,0.0,2019-03-17T21:14:47.177113,1,EyesClosed
7156.872112378134,20688.57350213212,-3301.1738420932106,1878.3511970461843,33687.56576628277,-2364.568694182479,6454.736763803574,5420.49919611206,0.0,0.0,0.0,2019-03-17T21:14:47.177755,1,EyesClosed
7268.027337554377,20754.175872108444,-3146.4997704624857,1999.2070793160296,33811.103857887254,-2606.70514186682,6588.020215990569,5519.562127537982,0.0,0.0,0.0,2019-03-17T21:14:47.185202,1,EyesClosed
7278.510305703915,20809.63055010206,-3138.1178662917455,2030.4548180645488,33828.82879124031,-2329.7670280655657,6612.830652335961,5572.7592793416125,0.0,0.0,0.0,2019-03-17T21:14:47.186105,1,EyesClosed
7188.589237760215,20760.523767533752,-3278.7326906600824,1918.874909743656,33719.28289166485,-2043.1059054262528,6494.14288927828,5489.096699845398,0.0,0.0,0.0,2019-03-17T21:14:47.192192,1,EyesClosed
7152.804094887269,20669.954499000847,-3324.173787137722,1850.7244408994247,33675.272306832354,-2300.5756498069345,6442.46565609761,5406.730521527591,0.0,0.0,0.0,2019-03-17T21:14:47.200049,1,EyesClosed
7249.028354767365,20700.375223204523,-3177.948674911103,1958.683366618558,33795.16706409062,-2608.1133017675047,6575.458535606687,5490.728377190635,0.0,0.0,0.0,2019-03-17T21:14:47.200718,1,EyesClosed
7279.5384859488595,20756.858081443082,-3140.844779115293,2011.8581666777334,33835.48961108799,-2413.3178488395038,6628.856853110416,5558.342404167939,-0.016,1.022,0.248,2019-03-17T21:14:47.206813,1,EyesClosed
7178.03921437731,20713.406290221967,-3287.5616297199285,1901.1723281350528,33721.1604381991,-2083.137879745708,6502.323627748922,5478.2561037845735,0.0,0.0,0.0,2019-03-17T21:14:47.207671,1,EyesClosed
7128.485396919894,20651.223737147302,-3352.8510752738807,1823.5670713862266,33660.20723106948,-2242.01407933403,6430.909804214216,5392.425405076195,0.0,0.0,0.0,2019-03-17T21:14:47.214633,1,EyesClosed
7207.09648216921,20675.788304303685,-3236.0855622393565,1897.1266623886422,33748.25075247893,-2610.4825866797673,6524.764779182051,5437.352411431362,0.0,0.0,0.0,2019-03-17T21:14:47.215372,1,EyesClosed
7272.542389934349,20752.54419476321,-3154.836971144315,1983.8514308752337,33814.747192233466,-2504.8929458728967,6601.721835341673,5523.808958984489,0.0,0.0,0.0,2019-03-17T21:14:47.222708,1,EyesClosed
7207.230592635941,20742.664723713962,-3263.4440974526524,1915.9691829644662,33741.20995297551,-2117.5148627179697,6512.963058109648,5487.017987611054,0.0,0.0,0.0,2019-03-17T21:14:47.223353,1,EyesClosed
7131.636992888092,20664.32185939811,-3373.1241074948443,1802.1317484535873,33649.29957977529,-2192.9072967657207,6403.148937600725,5375.505134523527,0.0,0.0,0.0,2019-03-17T21:14:47.229826,1,EyesClosed
7191.964351172966,20672.23437693529,-3279.3808912492864,1849.5845019322041,33722.6580050776,-2585.1580602119043,6470.986482022582,5396.49342256706,0.0,0.0,0.0,2019-03-17T21:14:47.230570,1,EyesClosed
7317.000009655954,20781.10972417709,-3130.1606452656565,1990.6910646785577,33850.8899630177,-2539.046411400606,6608.002675533614,5533.777837011557,0.0,0.0,0.0,2019-03-17T21:14:47.237446,1,EyesClosed
7257.901997316122,20770.82792172765,-3216.907765496703,1940.8913780321334,33795.9270234021,-2145.611005498291,6538.287584577512,5514.220060613163,0.0,0.0,0.0,2019-03-17T21:14:47.238435,1,EyesClosed
7164.494057237394,20690.24988296627,-3343.999784469579,1818.7614463283358,33686.38112382664,-2124.443903499115,6411.396731304733,5399.1309284127865,-0.016,1.012,0.252,2019-03-17T21:14:47.245473,1,EyesClosed
7223.547366088315,20694.3849556905,-3260.1807427621775,1858.234627036408,33750.68709262456,-2495.8404893684974,6472.506400645542,5410.753835529546,0.0,0.0,0.0,2019-03-17T21:14:47.246296,1,EyesClosed
7309.556878752337,20761.373133823054,-3141.2247587710335,1962.8631428317003,33847.738367049504,-2592.84706030453,6584.846268277916,5502.217173840663,0.0,0.0,0.0,2019-03-17T21:14:47.252530,1,EyesClosed
7266.753288120424,20761.753113478793,-3205.284858379943,1936.0186977408766,33803.839540939276,-2230.01119256153,6541.774456712539,5503.245354085607,0.0,0.0,0.0,2019-03-17T21:14:47.258729,1,EyesClosed
7193.28310409583,20701.939845316392,-3321.223356869621,1838.721554126925,33716.35481314121,-2076.6558738536687,6440.99044096356,5421.683838568192,0.0,0.0,0.0,2019-03-17T21:14:47.259410,1,EyesClosed
7204.794252490313,20663.204272175346,-3302.1126153603336,1816.1909957159753,33728.80473480281,-2447.2477969226597,6443.739705531562,5376.1756868571865,0.0,0.0,0.0,2019-03-17T21:14:47.267033,1,EyesClosed
7329.4946348064705,20754.064113386168,-3143.5940436832957,1946.971052523977,33859.22716369953,-2615.623487904488,6588.981341002148,5491.063653357465,0.0,0.0,0.0,2019-03-17T21:14:47.267760,1,EyesClosed
7326.3206870938175,20798.052346474215,-3154.7028606775834,1966.037090544354,33865.53035563593,-2273.6194459938342,6600.0454545075245,5536.57180506847,0.0,0.0,0.0,2019-03-17T21:14:47.274970,1,EyesClosed
7206.962371702478,20718.837764124604,-3312.550880020962,1837.715725626436,33745.032101277364,-2060.964949246043,6465.823229053406,5431.719771828624,0.0,0.0,0.0,2019-03-17T21:14:47.275641,1,EyesClosed
7186.7340429704245,20655.492920338264,-3336.2437291435876,1788.5418878247606,33722.590949844234,-2379.9243426232747,6438.375286862289,5364.39631752924,0.0,0.0,0.0,2019-03-17T21:14:47.282117,1,EyesClosed
7285.864029629712,20713.093365799592,-3197.8640792207816,1894.3997495650947,33829.67815752961,-2653.1073633560377,6564.036794190025,5449.869388326334,-0.018000000000000002,1.008,0.254,2019-03-17T21:14:47.282835,1,EyesClosed
7319.838681201778,20785.53536957924,-3162.1236398367455,1951.5978636262255,33867.16203298116,-2372.7047291642107,6615.535213415053,5527.184072397241,0.0,0.0,0.0,2019-03-17T21:14:47.289475,1,EyesClosed
7225.514319600382,20746.643334227007,-3303.5654787499284,1845.4494292079723,33760.25363925143,-2069.860943539255,6499.730825392106,5450.785809849001,0.0,0.0,0.0,2019-03-17T21:14:47.290326,1,EyesClosed
7212.125624671653,20706.119621529535,-3333.7403337645933,1797.884917007079,33737.90189479612,-2286.0917193998957,6468.7960110659615,5393.990027188066,0.0,0.0,0.0,2019-03-17T21:14:47.298960,1,EyesClosed
7283.271227272896,20722.90578161547,-3223.7697510444823,1871.1762870760308,33823.71024176005,-2636.5447207146553,6557.9571196981815,5440.995745777577,0.0,0.0,0.0,2019-03-17T21:14:47.299876,1,EyesClosed
7350.460571105549,20802.07566047617,-3138.6096046697626,1968.7640033679013,33896.889853106724,-2429.1205321694056,6634.69065841325,5547.4571046182045,0.0,0.0,0.0,2019-03-17T21:14:47.305701,1,EyesClosed
7246.837883810746,20747.425645282943,-3285.751138419049,1859.3298625147181,33777.129206315185,-2089.7986995933893,6499.730825392106,5468.711908902158,0.0,0.0,0.0,2019-03-17T21:14:47.306634,1,EyesClosed
7201.3520838441955,20682.315013684634,-3365.1445347242993,1771.107527149621,33700.52977806685,-2235.4203147197145,6410.122681870781,5373.091146122354,0.0,0.0,0.0,2019-03-17T21:14:47.311709,1,EyesClosed
7293.173050066597,20720.491793214296,-3236.465541895097,1860.358042759662,33802.94547116107,-2594.746958583231,6512.00193309807,5432.524434629016,0.0,0.0,0.0,2019-03-17T21:14:47.319445,1,EyesClosed
7368.8784085367215,20807.529486123265,-3126.271441730433,1973.6366836591583,33901.74018165352,-2484.597561907478,6617.16689076029,5548.1053052074085,0.0,0.0,0.0,2019-03-17T21:14:47.320100,1,EyesClosed
7297.688102446569,20790.385698126043,-3235.7726378169823,1904.5474415478043,33826.10187841676,-2101.51101368797,6531.470302518643,5511.336685578428,-0.01,1.004,0.26,2019-03-17T21:14:47.327586,1,EyesClosed
7216.394807862617,20701.358699960554,-3351.1076392063665,1789.5700680697046,33730.81639180379,-2161.6595580172016,6418.705751741619,5398.9744662016,0.0,0.0,0.0,2019-03-17T21:14:47.328234,1,EyesClosed
7264.942796819544,20685.153685230456,-3272.965940590613,1821.0860277516877,33788.1262645872,-2562.5380948231336,6476.149734991758,5405.724693027102,0.0,0.0,0.0,2019-03-17T21:14:47.336678,1,EyesClosed
7345.342021625283,20744.05053187019,-3162.593026470307,1924.909880746589,33882.16005351068,-2578.8995717644184,6583.013425232581,5506.441653542716,0.0,0.0,0.0,2019-03-17T21:14:47.337319,1,EyesClosed
7294.692968689557,20741.502433002286,-3242.008774520013,1884.9896651494105,33834.036747698396,-2188.4369478746594,6529.928032151227,5500.250220328596,0.0,0.0,0.0,2019-03-17T21:14:47.342749,1,EyesClosed
7217.6688572965695,20684.818409063628,-3361.165924211255,1778.9529894534337,33741.76874658689,-2123.169854065163,6424.919536700194,5405.635286049282,0.0,0.0,0.0,2019-03-17T21:14:47.343444,1,EyesClosed
7260.763020606401,20675.631842092498,-3302.6937607161717,1795.6944460504587,33787.63452620918,-2501.137852804405,6468.013700010026,5397.8345272343795,0.0,0.0,0.0,2019-03-17T21:14:47.349859,1,EyesClosed
7372.186466716107,20763.518901290765,-3157.3180147788544,1925.6027848247033,33907.84220788982,-2604.8946505659405,6604.627562120862,5512.543679779015,0.0,0.0,0.0,2019-03-17T21:14:47.350653,1,EyesClosed
7364.989205001499,20801.293349420233,-3186.1517651262006,1933.1129709616866,33898.40977172968,-2223.9762215585974,6596.893858539326,5545.043116217032,0.0,0.0,0.0,2019-03-17T21:14:47.358110,1,EyesClosed
7243.686287842547,20713.741566388795,-3343.910377491758,1790.68765529247,33765.86392710971,-2090.379844949227,6451.227539924091,5417.459358866138,0.0,0.0,0.0,2019-03-17T21:14:47.358750,1,EyesClosed
7241.71933433048,20669.105132711546,-3329.717019762638,1766.6818817474702,33771.20599403453,-2446.823113778009,6449.573510834398,5372.733518211069,-0.01,1.004,0.26,2019-03-17T21:14:47.364417,1,EyesClosed
7338.725905266512,20725.677397927928,-3193.192564629622,1874.2831795553184,33879.58960289831,-2658.605892492043,6572.3963466163095,5463.79452512199,0.0,0.0,0.0,2019-03-17T21:14:47.365204,1,EyesClosed
7350.706440294557,20771.20790138339,-3192.857288462793,1904.6144967811701,33889.22320475855,-2333.2539002005938,6590.031872991547,5517.751636237102,0.0,0.0,0.0,2019-03-17T21:14:47.371557,1,EyesClosed
7257.00792753791,20719.37420599153,-3336.2437291435876,1795.4932803503611,33781.93483137308,-2084.2331152240176,6471.701737845152,5433.038524751488,0.0,0.0,0.0,2019-03-17T21:14:47.372233,1,EyesClosed
7230.945793503022,20665.305336154146,-3360.4283166442297,1745.5147797482944,33756.94558107205,-2380.2149153011937,6436.788313005962,5366.63149197477,0.0,0.0,0.0,2019-03-17T21:14:47.379565,1,EyesClosed
7336.02134418742,20726.794985150693,-3215.9913439740353,1856.6700049245364,33869.66542836016,-2657.3765465470015,6560.706384266185,5454.853827339867,0.0,0.0,0.0,2019-03-17T21:14:47.387648,1,EyesClosed
7359.110696209753,20775.946471207913,-3194.8912972082258,1902.4463775690053,33891.503082692994,-2415.6200785184,6588.824878790961,5515.494110047115,0.0,0.0,0.0,2019-03-17T21:14:47.388362,1,EyesClosed
7259.488971172449,20725.56563920565,-3346.5702350819392,1790.240620403364,33775.251659780944,-2110.161138792174,6453.3733073918,5428.746989816069,0.0,0.0,0.0,2019-03-17T21:14:47.394177,1,EyesClosed
7226.654258567603,20672.56965310212,-3388.926790824746,1730.6955731744258,33736.27021745089,-2313.047923212996,6400.98081838856,5358.24958780403,0.0,0.0,0.0,2019-03-17T21:14:47.395102,1,EyesClosed
7324.398437070661,20719.597723436087,-3251.128286257778,1827.948013299467,33848.230105427516,-2645.418363263412,6517.768683167539,5430.490425883583,0.0,0.0,0.0,2019-03-17T21:14:47.402706,1,EyesClosed
7395.097004782797,20795.481895861853,-3170.751413196494,1919.0760754437538,33922.32613829686,-2467.9231605438185,6598.2573149511,5526.75938925259,-0.008,1.006,0.26,2019-03-17T21:14:47.403356,1,EyesClosed
7300.794994925856,20752.11951161856,-3309.0416561414786,1823.6564783640479,33822.79382023738,-2110.6975806591013,6486.09626127437,5463.41454546625,0.0,0.0,0.0,2019-03-17T21:14:47.410221,1,EyesClosed
7256.136209504153,20698.25180748127,-3376.7897935855144,1743.5031227473169,33762.44411020805,-2216.9130703107203,6411.396731304733,5382.344768326851,0.0,0.0,0.0,2019-03-17T21:14:47.410865,1,EyesClosed
7319.883384690689,20705.069089540135,-3278.0621383264233,1794.8227280167018,33834.75200352097,-2612.717761125298,6482.81055483944,5404.83062324889,0.0,0.0,0.0,2019-03-17T21:14:47.417531,1,EyesClosed
7391.051339036387,20779.142770665025,-3184.6989017366054,1889.974104162944,33914.21245505958,-2554.782039497142,6571.234055904634,5496.249258071096,0.0,0.0,0.0,2019-03-17T21:14:47.418184,1,EyesClosed
7337.4742075770155,20785.58007306815,-3270.8648766118145,1844.55535942976,33861.61880035625,-2153.411764313193,6514.639438943796,5480.983016608121,0.0,0.0,0.0,2019-03-17T21:14:47.424931,1,EyesClosed
7269.636663155158,20738.48494750082,-3369.123145237344,1749.1134106055988,33780.16904356111,-2165.794630741433,6421.74558898754,5386.457489306627,0.0,0.0,0.0,2019-03-17T21:14:47.425592,1,EyesClosed
7351.779324028412,20770.291479860723,-3258.683175883672,1817.1297689830983,33870.09011150481,-2530.26217582967,6510.347904008378,5423.8966612692675,0.0,0.0,0.0,2019-03-17T21:14:47.432901,1,EyesClosed
7418.074598082852,20816.805460072217,-3168.493887006508,1899.5182990453602,33945.14726938573,-2593.741130082742,6600.78306207455,5499.333798805928,0.0,0.0,0.0,2019-03-17T21:14:47.433609,1,EyesClosed
7373.013481260954,20822.84043107515,-3243.483989654063,1868.4046707635728,33897.940385096124,-2203.859651548821,6553.375012084844,5496.405720282283,0.0,0.0,0.0,2019-03-17T21:14:47.439880,1,EyesClosed
7286.959265108021,20758.981497166336,-3369.458421404174,1758.9705299103894,33798.653936225644,-2116.1290545617408,6443.851464253839,5399.309742368429,-0.012,1.004,0.254,2019-03-17T21:14:47.446931,1,EyesClosed
7305.868840917211,20726.459708983864,-3338.4342001002074,1752.7343932073586,33818.83756146879,-2510.7938064090977,6461.598749351353,5369.358404798318,0.0,0.0,0.0,2019-03-17T21:14:47.447919,1,EyesClosed
7426.769426675967,20821.700492107928,-3185.145936625712,1889.0129791513657,33943.42618506267,-2627.2463950212473,6598.97257077367,5486.772118422046,0.0,0.0,0.0,2019-03-17T21:14:47.454439,1,EyesClosed
7410.22913577904,20846.4215214755,-3220.193471931633,1889.3035518292847,33927.9587778996,-2262.7788499330104,6580.0853467089355,5512.029589656543,0.0,0.0,0.0,2019-03-17T21:14:47.455085,1,EyesClosed
7291.854297143734,20761.1496163785,-3382.131860510333,1751.5050472623168,33796.083485613286,-2106.182528279129,6432.317964114901,5393.051253920943,0.0,0.0,0.0,2019-03-17T21:14:47.462703,1,EyesClosed
7317.245878844962,20740.429549268432,-3354.9297875082243,1745.9618146374005,33812.020279409924,-2423.130264655383,6444.119685187303,5368.620797231293,0.0,0.0,0.0,2019-03-17T21:14:47.463710,1,EyesClosed
7434.7937029354225,20822.97454154188,-3198.0205414319685,1876.2277813229302,33940.587513516846,-2627.6934299103536,6585.15919270029,5481.541810219504,0.0,0.0,0.0,2019-03-17T21:14:47.469675,1,EyesClosed
7432.4467697676155,20854.110521568124,-3209.241117148533,1895.1150053876647,33941.72745248407,-2328.4259233982475,6592.06588173698,5523.540738051026,0.0,0.0,0.0,2019-03-17T21:14:47.470557,1,EyesClosed
7354.752106040968,20816.134907738557,-3336.42254309923,1798.8683937631124,33844.74323329249,-2045.9445769720767,6483.436403684188,5454.3620889618505,0.0,0.0,0.0,2019-03-17T21:14:47.477257,1,EyesClosed
7331.752160996457,20759.54029077772,-3364.80925855747,1742.0502593577219,33819.016375424435,-2319.574632593946,6444.633775309775,5388.78207072998,0.0,0.0,0.0,2019-03-17T21:14:47.478069,1,EyesClosed
7417.8287288938445,20791.72680279336,-3237.6948878401386,1830.3172982117294,33919.599225473314,-2633.5942904465546,6554.514951052064,5455.189103506697,-0.016,1.006,0.254,2019-03-17T21:14:47.485355,1,EyesClosed
7450.059944398397,20837.234954504365,-3202.3120763673874,1880.9887028919106,33962.045188193944,-2407.819319703498,6597.787928317539,5521.238508372129,0.0,0.0,0.0,2019-03-17T21:14:47.486015,1,EyesClosed
7357.099039208775,20780.930910221447,-3335.819045998937,1782.5739720551935,33859.87536428873,-2080.9474087890876,6480.463621671632,5448.416524936739,0.0,0.0,0.0,2019-03-17T21:14:47.494438,1,EyesClosed
7310.719169464013,20712.221647765833,-3383.517668666562,1711.5848316651384,33815.26128235594,-2269.4843732696027,6422.617307021297,5370.654805976726,0.0,0.0,0.0,2019-03-17T21:14:47.495161,1,EyesClosed
7391.788946603411,20739.870755657048,-3259.621949150795,1788.7654052693135,33913.49719923701,-2634.2871945246693,6522.775473925528,5422.779074046502,0.0,0.0,0.0,2019-03-17T21:14:47.501080,1,EyesClosed
7460.498209059026,20813.83267805966,-3185.01182615898,1872.4056330210726,33985.469816383105,-2490.4090154658575,6598.883163795849,5513.8847844463335,0.0,0.0,0.0,2019-03-17T21:14:47.507056,1,EyesClosed
7399.299132740394,20805.629587844564,-3288.6345134537833,1810.1336729685872,33916.872312649764,-2101.2651444989615,6515.712322677651,5478.3678625068505,0.0,0.0,0.0,2019-03-17T21:14:47.507707,1,EyesClosed
7343.732696024501,20745.01165688177,-3366.99972951409,1726.3816864945516,33856.25438168697,-2191.9461717541426,6443.247967153546,5391.374873086796,0.0,0.0,0.0,2019-03-17T21:14:47.514748,1,EyesClosed
7389.620827391247,20734.729854432328,-3291.227315810599,1758.2552740878195,33912.200798058606,-2602.771234842686,6499.283790503,5397.856878978834,0.0,0.0,0.0,2019-03-17T21:14:47.515504,1,EyesClosed
7452.5856915218465,20795.88422726205,-3210.202242160111,1840.1297140276092,33980.30656341393,-2576.552638596611,6579.638311819829,5480.111298574365,0.0,0.0,0.0,2019-03-17T21:14:47.522737,1,EyesClosed
7413.447786980604,20810.479916391363,-3284.2535715405434,1807.5185188673163,33940.296940838925,-2158.217389371084,6535.448913031687,5482.346473019895,-0.016,1.006,0.25,2019-03-17T21:14:47.523386,1,EyesClosed
7326.991239427476,20736.763863177763,-3402.8072241314917,1695.8939070575127,33847.02311122693,-2156.8539329593104,6427.780559990473,5378.92495142519,0.0,0.0,0.0,2019-03-17T21:14:47.529247,1,EyesClosed
7366.620882346736,20724.224534538334,-3335.4167145987412,1720.4137707249847,33890.2960884924,-2557.3524901095025,6472.28288320099,5374.454602534128,0.0,0.0,0.0,2019-03-17T21:14:47.530090,1,EyesClosed
7482.335863391861,20819.577076384674,-3187.5822767713403,1857.295853769285,34009.386182950286,-2595.1939934723373,6608.650876122818,5500.764310451068,0.0,0.0,0.0,2019-03-17T21:14:47.537543,1,EyesClosed
7435.933641902643,20819.174744984477,-3258.750231117038,1822.427132419006,33961.262877138004,-2214.253212720539,6555.67724176374,5495.019912126054,0.0,0.0,0.0,2019-03-17T21:14:47.538329,1,EyesClosed
7323.191442870074,20727.01850259525,-3414.2066138036985,1684.2709999407532,33830.99691045248,-2131.618813469269,6408.64746673673,5367.972596642089,0.0,0.0,0.0,2019-03-17T21:14:47.546052,1,EyesClosed
7362.485809622504,20715.90968560096,-3370.9559882826793,1691.0882819996218,33861.864669545255,-2496.5110417021565,6434.150807160236,5348.571282454883,0.0,0.0,0.0,2019-03-17T21:14:47.546775,1,EyesClosed
7494.517564120003,20817.364253683598,-3203.9884572015358,1836.6651936370367,34002.74771484706,-2627.1793397878814,6588.042567735025,5481.340644519406,0.0,0.0,0.0,2019-03-17T21:14:47.552811,1,EyesClosed
7480.190095924151,20851.160091300022,-3221.3557626433094,1857.139391558098,34004.15587474774,-2261.0130621210415,6595.016312005081,5528.011086942088,0.0,0.0,0.0,2019-03-17T21:14:47.553458,1,EyesClosed
7337.8318354883,20756.075770387146,-3398.0463025625113,1711.204852009398,33862.80344281238,-2088.770519348445,6439.694039785152,5402.8860214812785,0.0,0.0,0.0,2019-03-17T21:14:47.561334,1,EyesClosed
7338.211815144041,20728.694883429394,-3387.675093135249,1693.211697722876,33864.94921028009,-2405.0700551354953,6434.933118216171,5361.132962838765,-0.014,1.008,0.256,2019-03-17T21:14:47.568233,1,EyesClosed
7447.087162385841,20786.742363779827,-3242.4111059202082,1811.653591591548,33978.69723781315,-2644.0102033627277,6563.232131389634,5451.098734271376,0.0,0.0,0.0,2019-03-17T21:14:47.568892,1,EyesClosed
7477.150258678229,20841.861765606616,-3221.199300432122,1860.2462840373855,34007.37452594931,-2342.440467171725,6596.647989350318,5512.52132803456,0.0,0.0,0.0,2019-03-17T21:14:47.574518,1,EyesClosed
7375.31571093985,20781.892035233028,-3369.480773148629,1744.9559861369119,33887.12214077975,-2076.700577342579,6460.458810384132,5412.676085552703,0.0,0.0,0.0,2019-03-17T21:14:47.575423,1,EyesClosed
7376.589760373803,20759.652049499997,-3369.123145237344,1722.2242620258644,33886.675105890645,-2305.9624202206637,6441.9068624862275,5371.884151921768,0.0,0.0,0.0,2019-03-17T21:14:47.582253,1,EyesClosed
7463.71686026059,20796.532427851253,-3242.1875884756555,1808.5243473678051,33985.022781494,-2629.168645044404,6546.445971303699,5434.446684652172,0.0,0.0,0.0,2019-03-17T21:14:47.583044,1,EyesClosed
7521.183195255184,20872.662469466028,-3176.562866754874,1882.7768424483352,34045.4842502456,-2404.623020246389,6613.411797691799,5526.200595641208,0.0,0.0,0.0,2019-03-17T21:14:47.590396,1,EyesClosed
7419.303944027894,20819.666483362496,-3319.6587347577497,1771.8898382055568,33937.23475184855,-2073.0125395074533,6486.09626127437,5447.701269114169,0.0,0.0,0.0,2019-03-17T21:14:47.591066,1,EyesClosed
7359.490675865492,20745.235174326324,-3393.866526349369,1679.7559475607811,33869.57602138234,-2250.507742227047,6406.188774846647,5351.097029578332,0.0,0.0,0.0,2019-03-17T21:14:47.596881,1,EyesClosed
7449.52350253147,20785.06598294568,-3268.6967573996494,1754.947215908434,33969.309505141915,-2613.6341826479656,6516.00289535557,5406.350541871851,0.0,0.0,0.0,2019-03-17T21:14:47.597615,1,EyesClosed
7509.381474182782,20836.810271359715,-3197.551154798407,1828.7303243554027,34036.297683274475,-2502.143681304894,6596.670341094773,5492.069481857954,-0.01,1.012,0.26,2019-03-17T21:14:47.605030,1,EyesClosed
7421.695580684613,20790.564512081684,-3324.9113947047467,1741.8937971465348,33944.34260658534,-2132.5352349919362,6494.366406722833,5440.615766121837,0.0,0.0,0.0,2019-03-17T21:14:47.605772,1,EyesClosed
7362.843437533789,20731.10887183057,-3408.842195134425,1652.665633280949,33875.365123196265,-2198.8081573019217,6409.206260348113,5358.361346526307,0.0,0.0,0.0,2019-03-17T21:14:47.612959,1,EyesClosed
7417.448749238104,20738.52965098973,-3323.6596970152495,1696.6091628800825,33942.3085978399,-2592.802356815619,6479.56955189342,5380.1095938813205,0.0,0.0,0.0,2019-03-17T21:14:47.613599,1,EyesClosed
7536.15886404024,20851.31655351121,-3182.9778174135467,1837.0675250372321,34068.14891912328,-2535.067800887561,6620.318486728488,5520.612659527381,0.0,0.0,0.0,2019-03-17T21:14:47.620138,1,EyesClosed
7473.484572587558,20843.98518132987,-3278.0621383264233,1780.7634807543136,34003.66413636973,-2147.0415171434306,6549.977546927637,5500.965476151166,0.0,0.0,0.0,2019-03-17T21:14:47.621018,1,EyesClosed
7388.056205279376,20779.2545293873,-3401.644933419816,1672.4916306128064,33903.885949121235,-2123.9074616321877,6437.928251973182,5399.712073768625,0.0,0.0,0.0,2019-03-17T21:14:47.627301,1,EyesClosed
7423.8189964078665,20758.69092448842,-3349.543017094495,1691.7364825888258,33943.89557169623,-2519.9580216357735,6481.916485061227,5393.274771365496,0.0,0.0,0.0,2019-03-17T21:14:47.635173,1,EyesClosed
7495.277523431483,20802.723861065373,-3249.295443212443,1782.238695888364,34016.67285164271,-2627.916947354907,6571.792849516017,5467.281397257018,0.0,0.0,0.0,2019-03-17T21:14:47.635968,1,EyesClosed
7458.218331124584,20814.257361204312,-3307.521737518518,1766.3242538361853,33981.71472331461,-2253.5475794729687,6531.537357752009,5475.126859560831,0.0,0.0,0.0,2019-03-17T21:14:47.642692,1,EyesClosed
7383.876429066233,20762.669535001463,-3422.409704018796,1679.5994853495938,33897.82862637385,-2104.3943887227047,6430.216900136102,5399.041521434966,-0.008,1.022,0.26,2019-03-17T21:14:47.643562,1,EyesClosed
7388.7714611019455,20715.10502280057,-3395.677017650249,1673.0951277130996,33915.26298704898,-2468.2584367106483,6443.806760764928,5365.178628585176,0.0,0.0,0.0,2019-03-17T21:14:47.649695,1,EyesClosed
7509.940267794164,20798.16410519649,-3240.69002159715,1809.0384374902771,34043.003206611065,-2631.4038194899344,6586.500297367608,5478.144345062297,0.0,0.0,0.0,2019-03-17T21:14:47.650401,1,EyesClosed
7510.119081749807,20841.25826850632,-3261.4547921961303,1820.3707719291178,34039.49398273158,-2294.2948096149935,6584.980378744648,5509.727359977646,0.0,0.0,0.0,2019-03-17T21:14:47.657328,1,EyesClosed
7390.22432449154,20767.095180403612,-3417.268802794076,1688.0707964981552,33912.960757370085,-2093.598496150791,6445.393734621255,5395.465242322117,0.0,0.0,0.0,2019-03-17T21:14:47.658206,1,EyesClosed
7405.334103743327,20745.168119092956,-3398.448633962707,1676.8949242705019,33925.99182438753,-2382.0924618354397,6447.986536978071,5363.077564606377,0.0,0.0,0.0,2019-03-17T21:14:47.665301,1,EyesClosed
7492.260037930017,20789.73749753684,-3276.4975162145515,1765.8772189470792,34024.69712790217,-2659.455258781345,6554.783171985528,5428.434065393694,0.0,0.0,0.0,2019-03-17T21:14:47.665958,1,EyesClosed
7527.039352302475,20841.526489439784,-3245.003908277024,1819.5661091287268,34066.24902084458,-2373.464688475691,6598.816108562482,5500.630199984336,0.0,0.0,0.0,2019-03-17T21:14:47.672485,1,EyesClosed
7422.254374295995,20774.851235729606,-3399.5438694410173,1698.7325786033368,33949.37174908778,-2092.838536839311,6465.644415097763,5409.412730862228,0.0,0.0,0.0,2019-03-17T21:14:47.673332,1,EyesClosed
7413.537193958426,20739.311962045667,-3421.2027098182098,1659.013528706256,33931.46800177908,-2312.5114813460686,6440.498702585543,5359.143657582243,0.0,0.0,0.0,2019-03-17T21:14:47.679814,1,EyesClosed
7514.522375407502,20785.267148645777,-3288.098071586856,1753.9637391524004,34038.376395508814,-2637.394087003957,6553.218549873656,5428.45641713815,-0.012,1.016,0.26,2019-03-17T21:14:47.680649,1,EyesClosed
7564.8138004319435,20849.975448843892,-3231.369344159287,1823.4776644084054,34093.87577699134,-2445.258491666137,6615.535213415053,5510.532022778038,0.0,0.0,0.0,2019-03-17T21:14:47.687184,1,EyesClosed
7472.992834209542,20811.664558847497,-3364.7198515796485,1726.5381487057386,33995.39399092126,-2097.7559206194783,6505.542278950486,5445.466094668638,0.0,0.0,0.0,2019-03-17T21:14:47.694823,1,EyesClosed
7431.731513945046,20759.92027043346,-3425.5612999869945,1649.9387204574014,33940.74397572804,-2238.9071868547426,6442.197435164147,5363.010509373011,0.0,0.0,0.0,2019-03-17T21:14:47.695585,1,EyesClosed
7514.432968429682,20788.44109635843,-3309.5333945194957,1721.7548753923031,34032.60964543935,-2606.2357552332587,6541.528587523531,5410.709132040636,0.0,0.0,0.0,2019-03-17T21:14:47.701858,1,EyesClosed
7576.324948826426,20861.12896932709,-3224.2838411669545,1810.2901351797743,34106.66097481978,-2505.518794717645,6633.304850257022,5506.262839587073,0.0,0.0,0.0,2019-03-17T21:14:47.702735,1,EyesClosed
7465.4379445836485,20812.402166414522,-3364.4739823906402,1711.1154450315769,34001.98775553558,-2146.7285927210564,6522.52960473652,5441.129856244309,0.0,0.0,0.0,2019-03-17T21:14:47.709641,1,EyesClosed
7406.183470032629,20752.946526163403,-3454.640919523349,1620.724990454315,33930.2610075785,-2188.213430430106,6438.040010695459,5353.667480190692,0.0,0.0,0.0,2019-03-17T21:14:47.710490,1,EyesClosed
7465.661462028202,20753.237098841324,-3370.687767349216,1664.3332438866191,33995.72926708809,-2583.4593276333007,6502.457738215654,5368.44198327565,0.0,0.0,0.0,2019-03-17T21:14:47.717646,1,EyesClosed
7557.325966039416,20833.524564924784,-3256.6044636493284,1772.0686521611992,34090.120683922854,-2586.968551512784,6606.348646443921,5468.778964135524,0.0,0.0,0.0,2019-03-17T21:14:47.718448,1,EyesClosed
7520.177366754695,20849.394303488054,-3323.7267522486154,1742.9666808803895,34047.45120375767,-2182.3572733828155,6556.39249758631,5469.002481580077,-0.016,1.01,0.262,2019-03-17T21:14:47.725514,1,EyesClosed
7429.9210226441655,20771.990212439327,-3444.895558940835,1631.8338074486028,33950.39992933273,-2132.289365802928,6441.191606663658,5364.619834973792,0.0,0.0,0.0,2019-03-17T21:14:47.726404,1,EyesClosed
7470.087107430352,20750.64429648451,-3386.1328227678327,1648.1505809009768,33994.969307776606,-2520.9862018807175,6481.223580983113,5352.527541223471,0.0,0.0,0.0,2019-03-17T21:14:47.732184,1,EyesClosed
7569.708832467656,20818.973579284382,-3263.287635241465,1754.6789949749702,34093.60755605788,-2640.009241105228,6592.44586139272,5442.873292311823,0.0,0.0,0.0,2019-03-17T21:14:47.732840,1,EyesClosed
7555.873102649821,20856.233937291378,-3299.5421647479734,1755.5060095198166,34076.59787852739,-2261.30363479896,6575.9726257291595,5470.567103691948,0.0,0.0,0.0,2019-03-17T21:14:47.740336,1,EyesClosed
7451.870435699277,20788.955186480904,-3428.4670267661845,1646.273034366731,33974.78568253347,-2106.674266657146,6458.491856872065,5378.8802479362785,0.0,0.0,0.0,2019-03-17T21:14:47.741097,1,EyesClosed
7449.143522875729,20743.58114523663,-3406.0482270775115,1632.5490632711726,33988.330839673385,-2459.8318290509974,6464.504476130543,5341.664593418192,0.0,0.0,0.0,2019-03-17T21:14:47.747437,1,EyesClosed
7562.846846919876,20818.414785672998,-3252.3352804583647,1755.528361264272,34108.53852135402,-2653.062659867127,6597.251486450611,5444.057934767954,0.0,0.0,0.0,2019-03-17T21:14:47.755055,1,EyesClosed
7575.766155215044,20864.660544951028,-3257.744402616549,1778.7294720088807,34116.38398365784,-2323.50853961808,6608.628524378362,5492.18124058023,0.0,0.0,0.0,2019-03-17T21:14:47.755756,1,EyesClosed
7464.163895149696,20796.152448195513,-3415.39125625983,1650.855141980069,33992.10828448633,-2093.777310106434,6470.941778533671,5388.625608518792,0.0,0.0,0.0,2019-03-17T21:14:47.761617,1,EyesClosed
7419.125130072252,20722.190525792903,-3455.155009645821,1582.7270248802931,33949.19293513214,-2413.6754767507887,6419.935097686661,5302.169060965665,0.0,0.0,0.0,2019-03-17T21:14:47.762357,1,EyesClosed
7538.371686741315,20797.650015074018,-3292.680179200194,1709.5508229197053,34078.9448116952,-2675.749680489264,6561.82397148895,5405.322361626907,-0.016,1.006,0.26,2019-03-17T21:14:47.769814,1,EyesClosed
7581.667015751245,20871.03079212079,-3249.161332745711,1773.3874050840623,34129.86208556439,-2401.7172934671994,6617.457463438209,5489.431976012227,0.0,0.0,0.0,2019-03-17T21:14:47.770507,1,EyesClosed
7472.992834209542,20804.981387255357,-3405.1094538103885,1652.9338542144126,34010.34730796186,-2103.992057322509,6484.397528695766,5401.16493715822,0.0,0.0,0.0,2019-03-17T21:14:47.777990,1,EyesClosed
7449.925833931665,20752.11951161856,-3445.297890341031,1594.0817110635892,33975.5679935894,-2316.311277903471,6435.93894671666,5334.221462514575,0.0,0.0,0.0,2019-03-17T21:14:47.778669,1,EyesClosed
7537.611727429835,20783.09902943361,-3326.073685416423,1678.6160085935603,34069.11004413486,-2663.724441972309,6536.857072932372,5389.54203004146,0.0,0.0,0.0,2019-03-17T21:14:47.784510,1,EyesClosed
7608.466757353158,20875.32232705621,-3244.556873387918,1773.4097568285176,34145.061271793995,-2470.91829430083,6620.676114639773,5493.947028392199,0.0,0.0,0.0,2019-03-17T21:14:47.785249,1,EyesClosed
7508.979142782587,20840.811233617216,-3385.417566945263,1673.0951277130996,34040.43275599871,-2122.2981360314056,6504.670560916729,5427.249422937563,0.0,0.0,0.0,2019-03-17T21:14:47.793114,1,EyesClosed
7462.934549204654,20778.248700886812,-3457.63605328036,1592.6064959295388,33977.62435407929,-2242.572872945413,6430.574528047387,5343.29627076343,0.0,0.0,0.0,2019-03-17T21:14:47.794015,1,EyesClosed
7544.294899021972,20798.25351217431,-3346.190255426199,1658.5217903282394,34062.784500454014,-2619.445636206345,6521.2108518136565,5384.06585264991,0.0,0.0,0.0,2019-03-17T21:14:47.801779,1,EyesClosed
7625.051751738996,20882.720754470916,-3244.1545419877225,1762.211532856409,34150.51509744109,-2533.480827031234,6623.581841418963,5493.365883036361,0.0,0.0,0.0,2019-03-17T21:14:47.802283,1,EyesClosed
7550.374573513815,20876.775190445805,-3348.581892082917,1700.9230495599568,34078.36366633936,-2141.051249629408,6542.601471257386,5463.347490232884,-0.016,1.006,0.254,2019-03-17T21:14:47.807941,1,EyesClosed
7479.139563934751,20807.97652101237,-3450.639957265849,1601.3013245226532,33991.5718426194,-2165.6828720191565,6438.1517694177355,5364.44102101815,0.0,0.0,0.0,2019-03-17T21:14:47.814004,1,EyesClosed
7545.770114156022,20812.290407692242,-3357.5896450984055,1654.9008077264796,34062.67274173174,-2549.037641172128,6506.1234243063245,5384.78110847248,0.0,0.0,0.0,2019-03-17T21:14:47.814318,1,EyesClosed
7637.9487082897085,20882.899568426557,-3232.196358704133,1770.30286434923,34163.166184802794,-2574.786850784642,6619.379713461365,5488.672016700747,0.0,0.0,0.0,2019-03-17T21:14:47.821769,1,EyesClosed
7599.16843165975,20890.85678945265,-3302.961981649635,1741.044430857233,34117.74744006961,-2187.989912985553,6565.623768046352,5487.420319011249,0.0,0.0,0.0,2019-03-17T21:14:47.822116,1,EyesClosed
7505.0005322695415,20819.442965917944,-3430.8586634229023,1627.855196935558,34016.91872083172,-2118.587746451825,6445.550196832442,5381.674215993192,0.0,0.0,0.0,2019-03-17T21:14:47.829860,1,EyesClosed
7512.354256195338,20788.105820191602,-3400.706160152693,1617.8639671640358,34038.13052631981,-2514.660658199866,6460.2799964284895,5347.319584765385,0.0,0.0,0.0,2019-03-17T21:14:47.830481,1,EyesClosed
7615.641667323312,20875.724658456405,-3268.070908554901,1734.7412389208364,34147.318797983986,-2640.590386461066,6585.136840955835,5450.539940659994,0.0,0.0,0.0,2019-03-17T21:14:47.836961,1,EyesClosed
7598.0955479258955,20902.434993080496,-3308.259345085543,1730.7402766633365,34128.72214659717,-2281.107280386362,6564.662643034773,5471.662339170259,0.0,0.0,0.0,2019-03-17T21:14:47.837307,1,EyesClosed
7511.795462583955,20850.2213180329,-3437.9665181596897,1621.730818954804,34026.23939826959,-2105.89195560121,6447.852426511339,5382.21065786012,0.0,0.0,0.0,2019-03-17T21:14:47.844803,1,EyesClosed
7494.226991442084,20797.806477285205,-3442.928605428768,1579.150745767444,34017.36575572083,-2465.44211690928,6433.860234482317,5322.531500164449,-0.012,1.01,0.256,2019-03-17T21:14:47.845439,1,EyesClosed
7622.011914493074,20885.26885333882,-3280.6996441721494,1712.9482880769121,34153.309065498004,-2659.09763087006,6581.538210098531,5438.090018998387,0.0,0.0,0.0,2019-03-17T21:14:47.852774,1,EyesClosed
7613.294734155505,20899.79748723477,-3291.9872751220796,1719.3185352466746,34149.62102766288,-2363.2499412596158,6579.973587986659,5473.249313026585,0.0,0.0,0.0,2019-03-17T21:14:47.853461,1,EyesClosed
7524.513605179025,20847.159129042524,-3424.0413813640334,1613.2595078062425,34045.70776769015,-2103.679132900135,6467.611368609831,5396.381663844784,0.0,0.0,0.0,2019-03-17T21:14:47.860714,1,EyesClosed
7516.332866708382,20807.484782634354,-3430.322221555975,1579.3072079786311,34034.755412907056,-2366.0662610609843,6450.624042823797,5348.750096410525,0.0,0.0,0.0,2019-03-17T21:14:47.861405,1,EyesClosed
7608.332646886426,20848.477881965387,-3300.771510693015,1672.8045550351806,34136.29938796751,-2667.7254042298086,6563.030965689536,5420.476844367605,0.0,0.0,0.0,2019-03-17T21:14:47.867876,1,EyesClosed
7641.5920426359235,20907.017100693836,-3267.3109492434205,1727.8345498841466,34172.03982735155,-2429.7687327586095,6613.232983736156,5494.014083625565,0.0,0.0,0.0,2019-03-17T21:14:47.868428,1,EyesClosed
7543.892567621776,20855.988068102368,-3415.5030149821064,1620.3673625430301,34059.275276574524,-2116.732551662034,6492.533563677498,5415.581812331893,0.0,0.0,0.0,2019-03-17T21:14:47.874581,1,EyesClosed
7503.726482835589,20799.192285441433,-3471.225913909187,1550.5181611201956,34011.599005651355,-2311.4833011011247,6432.407371092721,5336.546043937927,0.0,0.0,0.0,2019-03-17T21:14:47.883639,1,EyesClosed
7602.6776555392335,20846.667390664505,-3338.6353658003054,1643.65788026546,34119.44617264821,-2654.9849098902837,6545.909529436771,5401.142585413764,0.0,0.0,0.0,2019-03-17T21:14:47.884534,1,EyesClosed
7675.142011063339,20929.368845149143,-3255.106896770823,1737.8704831445793,34196.805560208035,-2494.4770329567236,6633.17073979029,5498.3279703054395,-0.014,1.01,0.262,2019-03-17T21:14:47.890210,1,EyesClosed
7547.200625801162,20858.60322220364,-3419.638087706338,1613.572432228617,34070.11587263535,-2166.487534819548,6494.701682889662,5405.389416860273,0.0,0.0,0.0,2019-03-17T21:14:47.891138,1,EyesClosed
7490.874229773788,20794.83369527265,-3489.1296612178876,1534.6707743013828,34009.00620329454,-2259.5154952425355,6420.628001764775,5323.358514709296,0.0,0.0,0.0,2019-03-17T21:14:47.896876,1,EyesClosed
7563.472695764625,20815.30789319371,-3376.6556831187827,1603.0894640790777,34096.759152026076,-2634.9577468583284,6511.241973786589,5363.1446198397425,0.0,0.0,0.0,2019-03-17T21:14:47.897595,1,EyesClosed
7653.2149497526825,20902.36793784713,-3267.6685771547054,1711.71894213187,34190.54707176055,-2575.0550717181054,6613.612963391896,5469.047185068987,0.0,0.0,0.0,2019-03-17T21:14:47.904838,1,EyesClosed
7602.230620650127,20904.08902217019,-3357.2320171871206,1667.2836741547196,34133.952454799706,-2169.639130787746,6549.239939360612,5456.284338985007,0.0,0.0,0.0,2019-03-17T21:14:47.905512,1,EyesClosed
7511.884869561776,20829.635361389563,-3480.8148122805137,1549.5123326197067,34031.26854077203,-2185.2406484175503,6433.614365293309,5343.698602163626,0.0,0.0,0.0,2019-03-17T21:14:47.912838,1,EyesClosed
7551.894492136776,20820.44879441843,-3409.0210090900673,1578.279027733687,34088.89133797781,-2582.0511677326167,6484.956322307149,5347.0066603430105,0.0,0.0,0.0,2019-03-17T21:14:47.913417,1,EyesClosed
7637.591080378424,20892.51081854234,-3294.22244956761,1679.957113260879,34187.46253102571,-2639.0481160936497,6594.0551869935025,5441.711001600147,0.0,0.0,0.0,2019-03-17T21:14:47.919621,1,EyesClosed
7608.422053864248,20910.548676317772,-3355.086249719411,1659.7064327843707,34153.5102311981,-2247.3337945143935,6559.991128443615,5451.79163834949,0.0,0.0,0.0,2019-03-17T21:14:47.920383,1,EyesClosed
7538.774018141511,20854.289335523765,-3467.381413862874,1562.7445653372486,34062.80685219847,-2134.5915954818247,6457.061345226925,5367.30204430843,-0.012,1.016,0.256,2019-03-17T21:14:47.927661,1,EyesClosed
7565.573759743424,20818.057157761712,-3424.8236924199696,1563.8398008155586,34092.46761709066,-2512.649001198888,6475.881514058294,5343.698602163626,0.0,0.0,0.0,2019-03-17T21:14:47.928312,1,EyesClosed
7656.098324787417,20878.406867791044,-3286.332283774887,1678.5713051046498,34203.39932482235,-2665.8255059511075,6597.407948661798,5441.442780666684,0.0,0.0,0.0,2019-03-17T21:14:47.934801,1,EyesClosed
7668.950577849219,20936.141423719102,-3287.807498908937,1709.439064197429,34218.01736569612,-2283.722434487633,6609.276724967566,5492.963551636166,0.0,0.0,0.0,2019-03-17T21:14:47.942585,1,EyesClosed
7561.796314930477,20862.872405394603,-3445.7672769745923,1575.5521149101396,34095.708620036676,-2105.5566794343804,6470.092412244369,5380.7577944705245,0.0,0.0,0.0,2019-03-17T21:14:47.943556,1,EyesClosed
7537.879948363298,20811.68691059195,-3467.314358629508,1520.4550648278075,34070.048817401985,-2461.6870238407882,6437.302403128434,5306.684113345637,0.0,0.0,0.0,2019-03-17T21:14:47.950611,1,EyesClosed
7633.74658033211,20867.834492663682,-3335.237900643099,1620.6132317320387,34173.380932018874,-2704.9410587478947,6551.810389972972,5385.4516608061385,0.0,0.0,0.0,2019-03-17T21:14:47.951547,1,EyesClosed
7648.051696783507,20910.034586195303,-3322.5644615369397,1659.795839762192,34196.53733927457,-2400.242078333149,6579.861829264382,5444.348507445873,0.0,0.0,0.0,2019-03-17T21:14:47.957212,1,EyesClosed
7552.475637492614,20863.94528912846,-3469.348367374941,1548.215931441299,34085.09154142041,-2129.5177494904697,6453.663880069719,5357.199055814631,0.0,0.0,0.0,2019-03-17T21:14:47.957999,1,EyesClosed
7541.769151898522,20822.34869269713,-3486.961542005723,1506.2393553542324,34064.30441907697,-2381.690130435244,6424.450150066633,5299.330389419841,0.0,0.0,0.0,2019-03-17T21:14:47.965199,1,EyesClosed
7641.256766469093,20869.734390942383,-3342.0775344464228,1612.0748653501112,34177.851280909934,-2684.6903782713866,6545.10486663638,5380.981311915078,-0.018000000000000002,1.014,0.26,2019-03-17T21:14:47.966001,1,EyesClosed
7678.785345409554,20937.415473153054,-3294.513022245529,1678.95128476039,34228.63444431239,-2462.7152040857322,6601.16304173029,5462.632234410315,0.0,0.0,0.0,2019-03-17T21:14:47.972442,1,EyesClosed
7545.5018932225585,20856.166882058013,-3479.1384314463658,1531.8544545000143,34082.3422768524,-2172.120174422285,6446.220749166102,5347.63250918776,0.0,0.0,0.0,2019-03-17T21:14:47.973201,1,EyesClosed
7515.438796930171,20807.015396000792,-3528.2005105257645,1463.3463577444982,34033.25784602855,-2340.2052927261943,6393.135356084747,5272.977682707034,0.0,0.0,0.0,2019-03-17T21:14:47.979937,1,EyesClosed
7619.307353413982,20853.819948890203,-3382.087157021422,1566.0302717721788,34151.8114986195,-2673.872133955018,6519.020380857037,5351.63347144526,0.0,0.0,0.0,2019-03-17T21:14:47.980901,1,EyesClosed
7673.1080023179065,20915.42135660903,-3311.545051520473,1640.2827668527088,34214.284624372085,-2556.5031238202005,6586.1873729452345,5432.9938212625775,0.0,0.0,0.0,2019-03-17T21:14:47.988021,1,EyesClosed
7615.038170223019,20913.029719952312,-3412.396122502819,1572.4675741753072,34143.250780493116,-2166.6439970307347,6502.636552171297,5400.226163891097,0.0,0.0,0.0,2019-03-17T21:14:47.988808,1,EyesClosed
7546.552425211958,20846.712094153416,-3495.5669636210164,1478.3890817629197,34071.61343951386,-2243.5339979569912,6415.710617984608,5310.170985480665,0.0,0.0,0.0,2019-03-17T21:14:47.995084,1,EyesClosed
7609.2490684090935,20851.60712618913,-3397.6663229067713,1532.63676555595,34146.536486928046,-2631.3367642565686,6492.66767414423,5333.9755933255665,0.0,0.0,0.0,2019-03-17T21:14:48.001276,1,EyesClosed
7725.254622132137,20957.979078051936,-3260.001928806535,1671.530505601228,34269.11345352095,-2566.449650102812,6626.666382153796,5465.202685022675,0.0,0.0,0.0,2019-03-17T21:14:48.001994,1,EyesClosed
7641.837911824931,20929.011217237858,-3377.52740115254,1601.211917544832,34190.7705892051,-2196.14829971174,6540.701572978684,5421.594431590371,-0.014,1.01,0.258,2019-03-17T21:14:48.009584,1,EyesClosed
7549.2569862910495,20844.007533074324,-3510.0285422836,1478.6349509519282,34081.247041374096,-2201.020980002997,6417.096426140836,5301.230287698542,0.0,0.0,0.0,2019-03-17T21:14:48.010472,1,EyesClosed
7614.255859167083,20857.016248347314,-3433.831445435458,1515.6270880254613,34136.187629245236,-2586.0744817345717,6470.0253570110035,5306.661761601182,0.0,0.0,0.0,2019-03-17T21:14:48.017471,1,EyesClosed
7708.401406812836,20933.86154578466,-3308.4158072967302,1632.6831737379043,34240.905552018354,-2654.1802470898924,6588.556657857497,5411.893774496767,0.0,0.0,0.0,2019-03-17T21:14:48.018118,1,EyesClosed
7665.37429873637,20930.70994981646,-3361.2106277001653,1621.3508392990636,34209.657813269834,-2267.0703848684293,6556.995994686604,5424.991896747577,0.0,0.0,0.0,2019-03-17T21:14:48.024646,1,EyesClosed
7577.040204648996,20867.700382196952,-3481.5524198475387,1521.8185212395813,34119.960262770684,-2136.245624571517,6453.641528325264,5336.993078827033,0.0,0.0,0.0,2019-03-17T21:14:48.025468,1,EyesClosed
7619.50851911408,20860.23489954888,-3434.0996663689216,1530.1780736658661,34160.21575453469,-2483.8599543404525,6484.084604273392,5325.683096132648,0.0,0.0,0.0,2019-03-17T21:14:48.032091,1,EyesClosed
7723.175909897794,20926.060786969756,-3299.296295558965,1638.18170287391,34270.43220644382,-2653.643805222965,6604.962838287693,5421.54972810146,0.0,0.0,0.0,2019-03-17T21:14:48.032737,1,EyesClosed
7730.999020457151,20975.748714893904,-3297.552859491451,1667.6189503215494,34285.69844790679,-2289.667998512745,6620.162024517301,5479.597208451893,0.0,0.0,0.0,2019-03-17T21:14:48.040949,1,EyesClosed
7604.309332884471,20885.47001903892,-3461.927588215779,1519.896271216425,34153.53258294256,-2101.5333654324254,6471.075889000403,5362.831695417368,0.0,0.0,0.0,2019-03-17T21:14:48.041774,1,EyesClosed
7596.642684536301,20848.41082673202,-3464.6768527837817,1479.0819858410343,34143.40724270431,-2422.5491192995455,6451.1828364351795,5307.667590101671,-0.014,1.014,0.262,2019-03-17T21:14:48.048712,1,EyesClosed
7688.28483680306,20903.485525069897,-3331.1698831522326,1579.3295597230865,34248.885124788896,-2688.0207881952274,6567.657776791785,5386.725710240092,0.0,0.0,0.0,2019-03-17T21:14:48.049378,1,EyesClosed
7695.392691539847,20943.539851133806,-3328.8900052177914,1609.1691385709214,34257.199973726274,-2424.851348978442,6583.527515355053,5433.016173007032,0.0,0.0,0.0,2019-03-17T21:14:48.054794,1,EyesClosed
7623.531833116035,20913.141478674588,-3445.0967246409327,1529.8875009879473,34173.00095236313,-2112.6198306822575,6490.253685743057,5378.9696549141,0.0,0.0,0.0,2019-03-17T21:14:48.061513,1,EyesClosed
7591.747652500589,20844.99100983036,-3481.8206407810026,1471.3035787705874,34137.52873391256,-2353.057545787996,6442.7338770310735,5309.388674424729,0.0,0.0,0.0,2019-03-17T21:14:48.062149,1,EyesClosed
7686.563752480001,20886.341737072675,-3352.2922816624978,1564.376242682486,34239.58679909549,-2678.677759012909,6549.977546927637,5378.790840958458,0.0,0.0,0.0,2019-03-17T21:14:48.069417,1,EyesClosed
7733.345953624958,20951.25120297089,-3300.615048481828,1629.9115574254463,34295.30969802257,-2481.5353729171006,6611.176623246268,5459.8829698423115,0.0,0.0,0.0,2019-03-17T21:14:48.069847,1,EyesClosed
7630.550280875002,20897.316443600233,-3444.381468818363,1517.3928758374307,34184.40034203534,-2149.254339844506,6486.587999652386,5381.249532848541,0.0,0.0,0.0,2019-03-17T21:14:48.077802,1,EyesClosed
7590.8759344668315,20851.674181422495,-3492.482422886184,1450.5835116605178,34141.28382698105,-2292.372559591837,6426.640621023253,5309.276915702452,0.0,0.0,0.0,2019-03-17T21:14:48.078450,1,EyesClosed
7643.134313003339,20873.93651889998,-3379.0026162865897,1517.7505037487156,34225.50520008865,-2668.619474008021,6515.95819186666,5345.732610909058,0.0,0.0,0.0,2019-03-17T21:14:48.084432,1,EyesClosed
7699.550116008534,20942.914002289057,-3293.1272140893,1608.6103449595387,34296.78491315662,-2566.293187891625,6599.084329495947,5431.496254384071,-0.012,1.012,0.264,2019-03-17T21:14:48.085100,1,EyesClosed
7645.928281060253,20947.473758157943,-3383.428261688741,1563.3033589486313,34236.993996738674,-2164.989967941042,6530.822101929439,5408.742178528569,0.0,0.0,0.0,2019-03-17T21:14:48.092497,1,EyesClosed
7593.245219379094,20893.04726040927,-3463.246341138642,1482.5912097205176,34175.19142331975,-2210.185195229673,6448.99236547856,5321.48096817505,0.0,0.0,0.0,2019-03-17T21:14:48.093146,1,EyesClosed
7615.976943490142,20863.252385050346,-3408.3951602453185,1494.862317426481,34211.58006329299,-2637.1705695594037,6479.9495315491595,5299.5762586088495,0.0,0.0,0.0,2019-03-17T21:14:48.100522,1,EyesClosed
7704.333389321971,20950.58065063723,-3286.0864145858786,1614.3994467734633,34311.17943658584,-2625.3688484870017,6595.508050383098,5411.379684374295,0.0,0.0,0.0,2019-03-17T21:14:48.101194,1,EyesClosed
7658.780534122055,20961.77887460934,-3348.6936508051936,1591.4665569623182,34271.72860762222,-2216.935422055176,6548.994070171603,5417.615821077326,0.0,0.0,0.0,2019-03-17T21:14:48.107139,1,EyesClosed
7542.998497843564,20866.18046357399,-3492.2589054416308,1454.0033285621798,34145.73182412766,-2200.573945113891,6409.295667325934,5287.059281713878,0.0,0.0,0.0,2019-03-17T21:14:48.108015,1,EyesClosed
7580.16944887274,20854.199928545946,-3429.6293174778602,1474.6563404388835,34189.65300198233,-2587.594400357533,6448.411220122722,5280.130240932732,0.0,0.0,0.0,2019-03-17T21:14:48.115580,1,EyesClosed
7693.04575837204,20935.2920574298,-3286.0864145858786,1605.9281356249019,34309.39129702941,-2669.7594129752415,6582.54403859902,5397.1863266451755,0.0,0.0,0.0,2019-03-17T21:14:48.116071,1,EyesClosed
7673.018595340085,20955.43097918403,-3329.1358744067998,1600.69782742236,34288.20184328578,-2286.2928850999933,6562.494523822609,5421.7285420571025,0.0,0.0,0.0,2019-03-17T21:14:48.121868,1,EyesClosed
7586.539696042502,20894.76834473233,-3454.8197334789916,1491.8448319250147,34188.91539441531,-2136.7597146939893,6448.567682333909,5331.9192328356785,-0.014,1.008,0.27,2019-03-17T21:14:48.129711,1,EyesClosed
7619.732036558633,20886.07351613921,-3408.1045875674,1499.0197418951682,34224.38761286588,-2470.0242245226177,6480.620083882819,5324.431398443151,0.0,0.0,0.0,2019-03-17T21:14:48.130078,1,EyesClosed
7709.362531824414,20936.67786558603,-3282.107804072834,1597.9485628543573,34324.590483259024,-2672.9780641768057,6597.296189939522,5412.363161130329,0.0,0.0,0.0,2019-03-17T21:14:48.136642,1,EyesClosed
7691.749357193632,20960.52717691984,-3306.3147433179315,1608.2527170482538,34317.057945377586,-2348.766010852577,6597.095024239425,5451.79163834949,0.0,0.0,0.0,2019-03-17T21:14:48.137244,1,EyesClosed
7594.362806601859,20910.52632457332,-3441.2745763390753,1507.8263292105592,34216.05041218405,-2097.800624108389,6485.604522896353,5377.963826413611,0.0,0.0,0.0,2019-03-17T21:14:48.144630,1,EyesClosed
7578.582475016413,20859.497291981854,-3462.441678338251,1457.6243111639394,34199.666583498314,-2403.527784768079,6459.073002227903,5317.189433239631,0.0,0.0,0.0,2019-03-17T21:14:48.145153,1,EyesClosed
7700.801813698032,20929.90528701607,-3309.5333945194957,1578.569600411606,34327.16093387138,-2665.2220088508143,6601.051283008013,5418.018152477522,0.0,0.0,0.0,2019-03-17T21:14:48.152842,1,EyesClosed
7717.476215061691,20972.23949101442,-3293.3730832783085,1616.9698973858235,34349.44562309332,-2409.719217982199,6633.863643868404,5475.9091706167665,0.0,0.0,0.0,2019-03-17T21:14:48.153489,1,EyesClosed
7597.872030481342,20901.27270236882,-3460.4076695928184,1486.6368754669281,34218.15147616285,-2129.4283425126487,6489.583133409397,5371.861800177312,0.0,0.0,0.0,2019-03-17T21:14:48.159876,1,EyesClosed
7573.039242391496,20858.580870459184,-3492.1024432304434,1434.959642286258,34185.98731589167,-2346.307318962493,6442.398600864244,5305.320656933864,0.0,0.0,0.0,2019-03-17T21:14:48.160545,1,EyesClosed
7673.42092674028,20909.609903050652,-3351.800543284481,1536.9730039802796,34294.92971836683,-2677.515468301233,6555.073744663447,5373.3593670558175,-0.014,1.012,0.27,2019-03-17T21:14:48.167324,1,EyesClosed
7712.871755703897,20967.366810723164,-3297.2399350690766,1604.251754790754,34344.103556168506,-2504.8929458728967,6607.533288900053,5444.303803956963,0.0,0.0,0.0,2019-03-17T21:14:48.168257,1,EyesClosed
7622.056617981985,20930.821708538737,-3422.901442396813,1517.1917101373328,34257.24467721518,-2148.874360188766,6502.48008996011,5383.037672404966,0.0,0.0,0.0,2019-03-17T21:14:48.175427,1,EyesClosed
7557.102448594863,20862.961812372425,-3505.3570276924406,1426.6224416044286,34192.08934212796,-2290.40560607977,6415.107120884314,5285.271142157453,0.0,0.0,0.0,2019-03-17T21:14:48.176217,1,EyesClosed
7656.545359676524,20910.638083295595,-3371.224209216143,1515.7388467477379,34296.136712567415,-2652.1238866000044,6514.997066855081,5337.462465460595,0.0,0.0,0.0,2019-03-17T21:14:48.182558,1,EyesClosed
7733.614174558423,20988.377450511154,-3268.4061847217304,1619.5403479981837,34382.19092872035,-2563.722737279265,6608.852041822915,5435.40780966375,0.0,0.0,0.0,2019-03-17T21:14:48.189533,1,EyesClosed
7638.84277806792,20937.61663885315,-3398.9403723407236,1528.5016928317182,34286.592517685,-2197.6011631013353,6503.329456249411,5377.740308969058,0.0,0.0,0.0,2019-03-17T21:14:48.190441,1,EyesClosed
7562.355108541859,20861.061914093723,-3503.12185324691,1424.834302048004,34198.70545848674,-2238.571910687913,6401.69607421113,5277.939769976112,0.0,0.0,0.0,2019-03-17T21:14:48.196916,1,EyesClosed
7626.772836062055,20877.51279801283,-3402.4719479646624,1477.3609015179757,34275.90838383536,-2619.75856062872,6479.323682704411,5307.7346453350365,0.0,0.0,0.0,2019-03-17T21:14:48.197641,1,EyesClosed
7737.726895538199,20981.157837052087,-3260.6054259068283,1608.4315310038962,34399.06649578411,-2616.4057989604235,6612.651838380318,5435.921899786223,0.0,0.0,0.0,2019-03-17T21:14:48.205047,1,EyesClosed
7674.493810474135,20967.81384561227,-3345.0503164589786,1560.2188182137988,34346.18226840285,-2231.1734832732063,6552.927977195737,5424.3660479028285,-0.014,1.012,0.276,2019-03-17T21:14:48.205696,1,EyesClosed
7581.7787744735215,20888.286338840287,-3474.1092889439215,1440.3687644444424,34243.498354375166,-2164.2970638629276,6440.185778163169,5320.966878052578,0.0,0.0,0.0,2019-03-17T21:14:48.213388,1,EyesClosed
7629.835025052432,20883.637175993583,-3407.478738722651,1463.122840299945,34299.46712249126,-2530.9997833966954,6494.388758467288,5323.425569942662,0.0,0.0,0.0,2019-03-17T21:14:48.214314,1,EyesClosed
7713.832880715476,20941.125862732635,-3298.044597869468,1555.0779169890782,34391.57866139158,-2670.944055431373,6597.117375983879,5407.289315138974,0.0,0.0,0.0,2019-03-17T21:14:48.219728,1,EyesClosed
7696.0632438735065,20971.05484855829,-3342.0775344464228,1548.148876207933,34371.23857393725,-2302.252030641083,6580.711195553684,5431.608013106348,0.0,0.0,0.0,2019-03-17T21:14:48.220378,1,EyesClosed
7593.401681590281,20911.95683621846,-3477.7302715456813,1434.9819940307134,34262.944372051286,-2138.100819361308,6458.156580705236,5335.696677648625,0.0,0.0,0.0,2019-03-17T21:14:48.227740,1,EyesClosed
7623.330667415938,20903.262007625344,-3433.7867419465474,1443.7885813461044,34299.46712249126,-2462.469334896724,6486.945627563671,5322.509148419995,0.0,0.0,0.0,2019-03-17T21:14:48.228574,1,EyesClosed
7730.86490999042,20968.238528756923,-3286.622856452806,1557.7154228348045,34416.81378088162,-2673.9838926772945,6615.445806437231,5417.302896654952,0.0,0.0,0.0,2019-03-17T21:14:48.235694,1,EyesClosed
7732.295421635559,20997.228741315455,-3287.025187853001,1579.2625044897204,34421.7758681507,-2357.1032115344065,6627.582803676463,5463.526304188526,0.0,0.0,0.0,2019-03-17T21:14:48.236397,1,EyesClosed
7616.893365012809,20916.985978720902,-3446.996622919634,1446.6943081252944,34296.494340478705,-2124.130979076741,6492.3323979774,5357.847256403835,0.0,0.0,0.0,2019-03-17T21:14:48.242823,1,EyesClosed
7622.905984271287,20888.487504540386,-3447.600120019927,1420.5427671125851,34298.70716317977,-2391.3460840399366,6485.1127845183355,5320.631601885749,-0.014,1.008,0.27,2019-03-17T21:14:48.249164,1,EyesClosed
7732.206014657738,20947.831386069225,-3301.620876982317,1534.7825330236594,34416.90318785944,-2672.7545467322525,6613.903536069815,5417.481710610594,0.0,0.0,0.0,2019-03-17T21:14:48.249921,1,EyesClosed
7773.288520966593,21012.003244400414,-3256.8503328383367,1606.665743191927,34465.674694260924,-2412.33437208347,6669.291158830066,5506.03932214252,0.0,0.0,0.0,2019-03-17T21:14:48.257142,1,EyesClosed
