eeg1,eeg2,eeg3,eeg4,eeg5,eeg6,eeg7,eeg8,accx,accy,accz,iso_utc,session_id,command_name
0.0,0.0,0.0,0.0,0.0,0.0,0.0,0.0,0.028,1.01,0.218,2019-03-17T21:24:56.751848,11,EyesClosed
-18744.307010687233,-10930.360666556438,5748.734563438245,-2407.4169883033023,27891.244338899178,7943.027668360194,14189.490877329217,10752.8878155813,0.0,0.0,0.0,2019-03-17T21:24:56.766284,11,EyesClosed
-18700.69875725493,-10885.05368054553,5871.892675386986,-2213.6273638757903,27968.983706114737,8180.76082238684,14268.481942234272,10912.21105005873,0.0,0.0,0.0,2019-03-17T21:24:56.773514,11,EyesClosed
-18853.294116651312,-11046.23210981275,5806.29030541066,-2160.676081261168,27834.31444577151,8629.203871393665,14148.006039620166,10936.239175348184,0.0,0.0,0.0,2019-03-17T21:24:56.774217,11,EyesClosed
-18914.44848948103,-11104.123127951996,5682.327530661528,-2341.6805078602442,27745.175688883748,8455.419058253654,14059.560186810517,10782.526228729037,0.0,0.0,0.0,2019-03-17T21:24:56.780083,11,EyesClosed
-18776.851150614162,-10957.093352924985,5723.700609648301,-2428.494683324657,27863.99756240816,7967.681642494398,14163.920481672345,10730.871347292823,0.0,0.0,0.0,2019-03-17T21:24:56.780642,11,EyesClosed
-18696.02724266377,-10877.163514752809,5847.685736141889,-2262.242408066083,27968.357857269988,8072.064289100682,14259.92122410789,10867.954596037222,0.0,0.0,0.0,2019-03-17T21:24:56.788199,11,EyesClosed
-18824.77329072634,-11016.973676320753,5822.383561418482,-2156.6527672592124,27867.149158376356,8565.121420040301,14171.631833509426,10935.16629161433,0.0,0.0,0.0,2019-03-17T21:24:56.789051,11,EyesClosed
-18924.864402397205,-11127.34659044106,5690.284751687616,-2312.332667390426,27746.561497039977,8520.999076485525,14060.945994966745,10801.055824882487,0.026000000000000002,1.008,0.222,2019-03-17T21:24:56.796129,11,EyesClosed
-18804.455555016466,-10989.101050984986,5706.445062928804,-2431.2215961482043,27844.70800694323,8024.812701322163,14149.190682076298,10723.40586464475,0.0,0.0,0.0,2019-03-17T21:24:56.796815,11,EyesClosed
-18691.08750713915,-10863.8642268019,5843.260090739738,-2293.378388092326,27973.67757245035,8000.292837654691,14268.101962578532,10842.518310847081,0.0,0.0,0.0,2019-03-17T21:24:56.803223,11,EyesClosed
-18788.138781564092,-10975.578245589524,5853.676003655912,-2148.516732277481,27906.0858972175,8496.814488984883,14209.182764194342,10946.073942908519,0.0,0.0,0.0,2019-03-17T21:24:56.803862,11,EyesClosed
-18915.811945892805,-11112.169755955907,5716.36923746696,-2273.217114593639,27761.715979780674,8576.923141112702,14073.910006750824,10830.113092674386,0.0,0.0,0.0,2019-03-17T21:24:56.810790,11,EyesClosed
-18825.73441573792,-11011.005760551187,5683.690987073301,-2437.3459741289585,27812.566198416498,8085.922370662973,14117.115928782932,10714.934553496189,0.0,0.0,0.0,2019-03-17T21:24:56.811294,11,EyesClosed
-18683.59967274662,-10869.698032104736,5820.126035228495,-2329.36469666537,27968.469615992264,7946.447485261856,14263.072820076088,10822.401740837306,0.0,0.0,0.0,2019-03-17T21:24:56.818875,11,EyesClosed
-18752.979487535893,-10944.77754173011,5867.914064873942,-2149.18728461114,27938.80885110007,8423.433711938109,14244.319706478085,10963.105972183463,0.0,0.0,0.0,2019-03-17T21:24:56.819646,11,EyesClosed
-18903.764355631396,-11102.446747117847,5738.117484821973,-2230.949965828653,27778.993878244626,8629.785016749503,14099.346291940963,10883.176134011286,0.0,0.0,0.0,2019-03-17T21:24:56.825790,11,EyesClosed
-18853.227061417947,-11042.119388832974,5676.516077103148,-2414.9048226958303,27791.443799906232,8194.887124882594,14107.057643778044,10748.819798090435,0.0,0.0,0.0,2019-03-17T21:24:56.833031,11,EyesClosed
-18692.875646695575,-10870.994433283144,5801.261162908217,-2352.2975864765153,27948.91183959387,7934.735171167275,14252.813369371102,10815.740920989623,0.038,1.01,0.226,2019-03-17T21:24:56.833901,11,EyesClosed
-18724.436309866465,-10904.432642988282,5875.111326588551,-2161.7936684839333,27957.181985042334,8340.218167331,14261.016459586199,10962.927158227822,0.0,0.0,0.0,2019-03-17T21:24:56.840405,11,EyesClosed
-18882.329032698755,-11073.52358979268,5765.476020035269,-2197.064721234408,27802.843189578438,8652.0920577159,14114.925457826312,10915.317942538017,0.0,0.0,0.0,2019-03-17T21:24:56.840953,11,EyesClosed
-18877.143427985124,-11067.488618789748,5666.480143842715,-2400.7785202000764,27767.3039158945,8276.538047377831,14076.905140507835,10752.239614992097,0.0,0.0,0.0,2019-03-17T21:24:56.848666,11,EyesClosed
-18712.344016116145,-10891.021596315099,5765.2301508462615,-2390.6978834507327,27922.58148462552,7914.484490690767,14215.798880553113,10778.458211238172,0.0,0.0,0.0,2019-03-17T21:24:56.849411,11,EyesClosed
-18694.75319322982,-10880.87390433239,5871.132716075506,-2193.8460700328437,27970.25775554869,8233.510939301364,14261.15057005293,10930.58418400099,0.0,0.0,0.0,2019-03-17T21:24:56.856355,11,EyesClosed
-18848.622602060153,-11042.23114755525,5794.175659915884,-2168.990930198542,27830.425242236288,8641.698496544182,14134.304420269063,10925.7785589431,0.0,0.0,0.0,2019-03-17T21:24:56.856871,11,EyesClosed
-18869.588538359232,-11063.018269898686,5691.178821465829,-2350.08476377544,27775.708171809696,8384.340510885777,14082.157800454832,10776.312443770463,0.0,0.0,0.0,2019-03-17T21:24:56.863818,11,EyesClosed
-18721.240010409358,-10907.316018023017,5749.114543093985,-2404.6453719908445,27903.828371027517,7931.583575199077,14198.409223366883,10745.914071311245,0.0,0.0,0.0,2019-03-17T21:24:56.864630,11,EyesClosed
-18669.49572199532,-10853.157741207808,5870.752736419766,-2220.7352186125777,27986.172197600867,8139.23128118888,14277.042660360654,10895.335482994973,0.0,0.0,0.0,2019-03-17T21:24:56.871160,11,EyesClosed
-18824.460366303967,-11020.304086244594,5816.192128204361,-2155.8928079477323,27861.762387962626,8603.298199569965,14167.049725896088,10930.07009387852,0.048,1.016,0.214,2019-03-17T21:24:56.872056,11,EyesClosed
-18899.092841040238,-11098.401081371438,5687.311969675061,-2335.243205457116,27762.341828625424,8453.116828574757,14074.513503851118,10779.307577527474,0.0,0.0,0.0,2019-03-17T21:24:56.879122,11,EyesClosed
-18761.18257775099,-10947.683268509301,5723.99118232622,-2428.4052763468358,27878.928527704305,7958.919758667917,14179.23142662423,10723.539975111482,0.0,0.0,0.0,2019-03-17T21:24:56.879794,11,EyesClosed
-18669.830998162153,-10851.459008629205,5863.510771216246,-2256.788582418988,28000.67847975236,8047.477370199844,14294.141744868964,10870.614453627402,0.0,0.0,0.0,2019-03-17T21:24:56.885381,11,EyesClosed
-18798.085307846704,-10995.314835943562,5843.170683761917,-2144.8510461868104,27905.10242046147,8546.569472142395,14212.155546206897,10947.504454553658,0.0,0.0,0.0,2019-03-17T21:24:56.892618,11,EyesClosed
-18905.910123099104,-11112.862660034021,5697.169088979851,-2305.627144053834,27771.573099085464,8523.368361397786,14088.282178435586,10809.728301731146,0.0,0.0,0.0,2019-03-17T21:24:56.893199,11,EyesClosed
-18798.174714824523,-10988.631664351424,5692.341112177505,-2439.8046660190425,27853.08991111397,8018.688323341409,14159.248967081186,10719.427254131706,0.0,0.0,0.0,2019-03-17T21:24:56.900727,11,EyesClosed
-18678.235254077346,-10860.086781988954,5836.1969394918615,-2294.6524375262784,27997.281014595155,7985.2724653807245,14294.58877975807,10853.515369119094,0.0,0.0,0.0,2019-03-17T21:24:56.901272,11,EyesClosed
-18775.979432580403,-10968.671556552836,5849.742096631778,-2148.248511344017,27929.53287715112,8482.688186489127,14239.223508742274,10962.435419849804,0.0,0.0,0.0,2019-03-17T21:24:56.908661,11,EyesClosed
-18911.296893512834,-11106.827689031088,5714.916374077365,-2268.92557965822,27783.26306143559,8587.808440662437,14101.201486730753,10851.011973740098,0.0,0.0,0.0,2019-03-17T21:24:56.909091,11,EyesClosed
-18827.187279127513,-11021.198156022807,5677.633664325913,-2443.1350759428833,27825.016120078104,8100.942742936939,14136.114911569943,10725.842204790379,0.044,1.022,0.218,2019-03-17T21:24:56.915335,11,EyesClosed
-18678.54817849972,-10869.116886748898,5804.7703867877,-2356.4550109452025,27967.866118891972,7926.196804785348,14266.984375355767,10811.561144776482,0.0,0.0,0.0,2019-03-17T21:24:56.916043,11,EyesClosed
-18741.580097863687,-10930.539480512081,5853.117210044528,-2180.569133826391,27937.221877243745,8384.429917863597,14242.822139599579,10940.038971905586,0.0,0.0,0.0,2019-03-17T21:24:56.924740,11,EyesClosed
-18897.327053228266,-11095.651816803434,5729.6014701845015,-2245.3891927467816,27783.374820157867,8619.793786977982,14103.928399554301,10864.937110535755,0.0,0.0,0.0,2019-03-17T21:24:56.925198,11,EyesClosed
-18853.87526200715,-11047.819083669077,5660.422821095326,-2431.333354870481,27788.895701038327,8193.903648126561,14107.862306578436,10721.953001255155,0.0,0.0,0.0,2019-03-17T21:24:56.932780,11,EyesClosed
-18700.430536321466,-10885.366604967905,5769.968720670787,-2390.831993917465,27937.557153410573,7898.346531194035,14245.72786637877,10767.37174598834,0.0,0.0,0.0,2019-03-17T21:24:56.933617,11,EyesClosed
-18720.27888539778,-10906.01961684461,5855.665308912434,-2190.873288020288,27957.91959260936,8291.245495229423,14268.817218401102,10916.949619883255,0.0,0.0,0.0,2019-03-17T21:24:56.938931,11,EyesClosed
-18881.03263152035,-11077.971586939286,5750.388592527937,-2211.280430707983,27805.45834367971,8624.554708546963,14127.84476612148,10875.420078685294,0.0,0.0,0.0,2019-03-17T21:24:56.939687,11,EyesClosed
-18884.407744933098,-11079.446802073337,5647.682326755801,-2414.1895668732604,27765.404017615798,8266.703279817495,14084.772954556103,10709.905410993744,0.0,0.0,0.0,2019-03-17T21:24:56.945149,11,EyesClosed
-18722.044673209748,-10903.315055765517,5744.37597326946,-2414.3460290844478,27919.47459214623,7886.231885699259,14224.918392290878,10727.384475157794,0.0,0.0,0.0,2019-03-17T21:24:56.952896,11,EyesClosed
-18707.33722535816,-10891.088651548464,5848.244529753271,-2224.0432767919633,27971.375342771455,8184.515915455332,14276.68503244937,10877.431735686272,0.03,1.02,0.22,2019-03-17T21:24:56.953674,11,EyesClosed
-18860.357267899188,-11054.479903516758,5774.304959095116,-2196.9976660010416,27834.426204493786,8606.60625774935,14151.537615244106,10882.796154355545,0.0,0.0,0.0,2019-03-17T21:24:56.961049,11,EyesClosed
-18890.286253724844,-11086.398194598938,5661.048669940075,-2386.5404589820455,27766.454549605198,8371.46590607952,14084.705899322737,10730.469015892628,0.0,0.0,0.0,2019-03-17T21:24:56.961683,11,EyesClosed
-18746.788054321773,-10931.746474712667,5715.676333388846,-2449.81824753502,27892.071353444026,7908.337760965558,14199.549162334104,10698.528373065994,0.0,0.0,0.0,2019-03-17T21:24:56.968441,11,EyesClosed
-18687.086544881648,-10872.559055395015,5841.762523861233,-2264.20936157815,27985.21107258929,8094.460737044899,14287.793849443657,10852.554244107514,0.0,0.0,0.0,2019-03-17T21:24:56.969242,11,EyesClosed
-18834.853927475684,-11028.84245262652,5794.689750038356,-2186.894677507243,27864.355190319442,8573.1233445553,14179.23142662423,10897.838878373967,0.0,0.0,0.0,2019-03-17T21:24:56.975500,11,EyesClosed
-18911.006320834913,-11108.504069865236,5662.009794951653,-2361.6406156588337,27756.73154076714,8449.540549461908,14075.966367240711,10746.22699573362,0.0,0.0,0.0,2019-03-17T21:24:56.976002,11,EyesClosed
-18771.933766833994,-10955.685193024301,5693.704568589279,-2457.954282516752,27866.36684732042,7958.338613312079,14176.57156903405,10686.011396171021,0.0,0.0,0.0,2019-03-17T21:24:56.983503,11,EyesClosed
-18678.30230931071,-10858.835084299455,5828.82086382161,-2292.886649714309,27982.17123534337,8019.761207075264,14285.245750575752,10823.139348404331,0.0,0.0,0.0,2019-03-17T21:24:56.983928,11,EyesClosed
-18793.994938611384,-10986.530600372625,5820.416607906414,-2163.4253458291705,27891.937242977292,8521.334352652353,14206.277037415151,10909.059454090531,0.0,0.0,0.0,2019-03-17T21:24:56.991516,11,EyesClosed
-18911.766280146396,-11107.587648342569,5679.3547486489715,-2308.018780710552,27755.233973888633,8522.11666370829,14077.93332075278,10775.820705392445,0.02,1.014,0.22,2019-03-17T21:24:56.991962,11,EyesClosed
-18803.874409660628,-10985.725937572233,5672.671577056834,-2443.559759087534,27831.90045737034,8022.108140243071,14145.882623896912,10680.155239123731,0.0,0.0,0.0,2019-03-17T21:24:56.999059,11,EyesClosed
-18669.562777228686,-10837.958554978199,5814.716913070311,-2307.728208032633,27978.103217852502,7959.076220879105,14279.814276673113,10804.699159228703,0.0,0.0,0.0,2019-03-17T21:24:56.999754,11,EyesClosed
-18760.467321928423,-10941.31302133954,5832.955936545842,-2158.5303137934584,27917.75350782317,8448.378258750232,14226.684180102848,10914.759148926634,0.0,0.0,0.0,2019-03-17T21:24:57.005520,11,EyesClosed
-18904.524314942875,-11097.998749971242,5692.832850555522,-2276.59222800639,27762.96767747017,8574.777373644993,14083.320091166508,10805.794394707013,0.0,0.0,0.0,2019-03-17T21:24:57.006460,11,EyesClosed
-18828.95306693948,-11014.805557108588,5651.057440168553,-2451.0252417356064,27798.55165464302,8098.171126624481,14111.349178713463,10676.869532688801,0.0,0.0,0.0,2019-03-17T21:24:57.013567,11,EyesClosed
-18678.659937221997,-10855.169398208785,5784.2514853777275,-2363.6522726598114,27951.95167683979,7901.453423673323,14249.661773402904,10757.60403366137,0.0,0.0,0.0,2019-03-17T21:24:57.021395,11,EyesClosed
-18721.865859254107,-10905.30436102204,5849.943262331875,-2172.120174422285,27942.452185446287,8351.84107444776,14244.833796600557,10899.805831886033,0.0,0.0,0.0,2019-03-17T21:24:57.022055,11,EyesClosed
-18871.10845698219,-11066.594549011535,5732.775417897155,-2229.4523989501477,27789.58860511644,8607.902658927758,14106.968236800223,10833.979944465154,0.0,0.0,0.0,2019-03-17T21:24:57.028028,11,EyesClosed
-18839.547793811296,-11030.116502060475,5657.807666994056,-2421.409180332325,27786.83934054844,8189.343892257678,14100.039196019077,10685.340843837363,0.0,0.0,0.0,2019-03-17T21:24:57.028676,11,EyesClosed
-18687.444172792933,-10867.52991289257,5766.727717724767,-2388.552115983023,27939.971141811748,7874.161943693393,14239.692895375836,10729.865518792334,0.03,1.012,0.228,2019-03-17T21:24:57.036114,11,EyesClosed
-18697.636568264552,-10875.174209496285,5859.912140358942,-2191.633247331768,27968.53667122563,8251.437038354521,14271.678241691381,10885.813639857011,0.0,0.0,0.0,2019-03-17T21:24:57.036824,11,EyesClosed
-18862.12305571116,-11052.04356337113,5756.445915275325,-2208.084131250874,27815.69544264024,8605.041635637479,14138.148920315376,10852.978927252165,0.0,0.0,0.0,2019-03-17T21:24:57.044019,11,EyesClosed
-18867.465122635975,-11059.866673930488,5652.219730880229,-2406.6346772473667,27773.562404341985,8278.929684034549,14098.720443096214,10695.712053264626,0.0,0.0,0.0,2019-03-17T21:24:57.044717,11,EyesClosed
-18695.960187430406,-10879.175171753785,5746.812313415088,-2414.9048226958303,27927.90119980588,7884.331987420558,14241.369276209984,10710.821832516413,0.0,0.0,0.0,2019-03-17T21:24:57.050714,11,EyesClosed
-18660.59972770211,-10841.892462002334,5863.957806105353,-2212.3309626973823,27991.760133714695,8168.534418169787,14305.004692674243,10873.989567040155,0.0,0.0,0.0,2019-03-17T21:24:57.051533,11,EyesClosed
-18813.686825476507,-11004.300237214595,5794.153308171429,-2169.929703465665,27857.895536171858,8605.667484482228,14184.037051682122,10889.859305603422,0.0,0.0,0.0,2019-03-17T21:24:57.058708,11,EyesClosed
-18865.855797035194,-11056.156284350907,5670.391699122393,-2366.8038686280097,27774.34471539792,8382.865295751726,14104.263675721131,10729.753760070058,0.0,0.0,0.0,2019-03-17T21:24:57.059540,11,EyesClosed
-18725.03980696676,-10902.130413309385,5719.163205523873,-2445.236139921682,27893.70303078926,7902.548659151633,14213.273133429664,10685.87728570429,0.0,0.0,0.0,2019-03-17T21:24:57.066807,11,EyesClosed
-18656.59876544461,-10834.650496798813,5849.764448376232,-2263.8070301779544,27994.3082325826,8061.335451762135,14305.630541518993,10835.43280785475,0.0,0.0,0.0,2019-03-17T21:24:57.067470,11,EyesClosed
-18793.39144151109,-10980.36151890296,5813.711084569823,-2167.828639486866,27887.1316179194,8552.984422801068,14207.61814208247,10897.861230118422,0.038,1.006,0.23,2019-03-17T21:24:57.073895,11,EyesClosed
-18884.295986210822,-11074.551770037624,5674.727937546723,-2340.27234795956,27771.43898861873,8455.329651275832,14098.519277396117,10750.31736496894,0.0,0.0,0.0,2019-03-17T21:24:57.080091,11,EyesClosed
-18752.644211369065,-10934.8310154475,5691.849373799489,-2454.8250382930087,27867.90911768784,7947.900348651451,14181.980691192233,10670.901616919235,0.0,0.0,0.0,2019-03-17T21:24:57.081007,11,EyesClosed
-18647.21103277338,-10822.312333859485,5835.906366813942,-2296.440577082703,27992.38598255944,7981.271503123225,14295.885180936479,10806.263781340574,0.0,0.0,0.0,2019-03-17T21:24:57.088377,11,EyesClosed
-18762.031944040293,-10947.236233620195,5836.018125536219,-2166.7557557530113,27909.14808620788,8485.616265012774,14224.896040546422,10898.35296849644,0.0,0.0,0.0,2019-03-17T21:24:57.089129,11,EyesClosed
-18871.443733149023,-11061.967737909286,5706.690932117812,-2296.9099637162644,27781.519625368077,8527.726951566572,14106.476498422206,10784.001443863088,0.0,0.0,0.0,2019-03-17T21:24:57.096008,11,EyesClosed
-18764.065952785724,-10945.716314997235,5694.308065689572,-2442.620985820411,27852.374655291398,8033.507529915278,14171.363612575962,10685.340843837363,0.0,0.0,0.0,2019-03-17T21:24:57.096416,11,EyesClosed
-18648.26156476278,-10818.646647768814,5817.332067171582,-2336.6290136133453,27982.618270232473,7922.4640634613115,14291.884218678979,10781.65451069528,0.0,0.0,0.0,2019-03-17T21:24:57.103042,11,EyesClosed
-18736.3721414056,-10915.630866960391,5846.478741941302,-2175.8529157463213,27935.00905454267,8406.356979174254,14254.243881016242,10899.96229409722,0.0,0.0,0.0,2019-03-17T21:24:57.103407,11,EyesClosed
-18876.87520705166,-11067.958005423308,5711.451853686793,-2275.854620439365,27780.826721289963,8564.808495617926,14114.299608981564,10803.13453711683,0.0,0.0,0.0,2019-03-17T21:24:57.110613,11,EyesClosed
-18811.786927197805,-10992.587923120014,5663.954396719265,-2449.81824753502,27810.778058860073,8100.160431881003,14140.585260461005,10672.309776819919,0.034,1.012,0.23,2019-03-17T21:24:57.110950,11,EyesClosed
-18659.88447187954,-10827.676752528758,5793.326293626582,-2368.2567320176045,27970.101293337502,7884.756670565209,14289.872561678001,10752.284318481008,0.0,0.0,0.0,2019-03-17T21:24:57.118985,11,EyesClosed
-18712.545181816244,-10885.791288112556,5853.787762378188,-2189.7780525419776,27958.52308970965,8315.83241413026,14282.362375541017,10886.90887533532,0.0,0.0,0.0,2019-03-17T21:24:57.119758,11,EyesClosed
-18869.141503470124,-11049.294298803128,5740.218548800773,-2242.5952246898682,27809.012271048105,8595.899772155259,14146.240251808198,10831.230679897151,0.0,0.0,0.0,2019-03-17T21:24:57.127168,11,EyesClosed
-18844.57693631374,-11024.908545602388,5657.494742571681,-2437.6141950624224,27794.036602263048,8192.495488225877,14130.571678945027,10681.630454257782,0.0,0.0,0.0,2019-03-17T21:24:57.127829,11,EyesClosed
-18690.595768761134,-10864.892407046844,5763.598473501024,-2413.8319389619755,27945.53672618112,7857.487542329734,14268.191369556353,10713.995780229066,0.0,0.0,0.0,2019-03-17T21:24:57.133377,11,EyesClosed
-18697.390699075546,-10873.430773428772,5860.716803159333,-2217.62832613329,27984.4064097889,8219.96578216145,14308.156288642442,10872.335537950461,0.0,0.0,0.0,2019-03-17T21:24:57.141932,11,EyesClosed
-18859.19497718751,-11041.828816155055,5766.794772958133,-2218.4553406781365,27837.935428373272,8597.911429156236,14174.381098077429,10851.838988284944,0.0,0.0,0.0,2019-03-17T21:24:57.142748,11,EyesClosed
-18871.510788382388,-11053.317612805082,5657.360632104949,-2414.8377674624644,27785.11825622538,8293.614780141686,14123.173251530321,10692.627512529793,0.0,0.0,0.0,2019-03-17T21:24:57.148529,11,EyesClosed
-18711.248780637834,-10883.44435494475,5731.568423696569,-2442.0845439534837,27927.43181317232,7874.899551260419,14251.360505981507,10688.179515383186,0.0,0.0,0.0,2019-03-17T21:24:57.149289,11,EyesClosed
-18666.277070793756,-10835.701028788213,5853.519541444724,-2242.081134567396,27999.292671596133,8133.978621241882,14321.83555624909,10847.390991138338,0.028,1.012,0.234,2019-03-17T21:24:57.156580,11,EyesClosed
-18819.5429825238,-10993.683158598324,5791.068767436596,-2186.1570699402178,27870.50192004465,8586.310873783932,14206.835831026536,10876.62707288588,0.0,0.0,0.0,2019-03-17T21:24:57.157271,11,EyesClosed
-18881.144390242625,-11058.436162285348,5661.562760062548,-2375.8116216434983,27777.49631136612,8384.832249263794,14116.959466571745,10717.817928530923,0.0,0.0,0.0,2019-03-17T21:24:57.163153,11,EyesClosed
-18734.22637393789,-10904.767919155112,5708.70258911879,-2448.946529501263,27898.0839727025,7910.058845288617,14223.57728762356,10676.578960010882,0.0,0.0,0.0,2019-03-17T21:24:57.163841,11,EyesClosed
-18652.88837586503,-10821.686485014736,5847.05988729714,-2267.2491988240718,28001.550197786117,8047.276204499746,14321.053245193154,10829.397836851816,0.0,0.0,0.0,2019-03-17T21:24:57.171926,11,EyesClosed
-18793.659662444552,-10971.756097287667,5808.346665900549,-2177.283427391461,27882.638917283886,8534.767751069994,14214.278961930153,10882.863209588912,0.0,0.0,0.0,2019-03-17T21:24:57.172844,11,EyesClosed
-18885.704146111508,-11070.48375254676,5670.391699122393,-2340.629975870845,27762.744160025617,8465.119715347257,14101.447355919761,10742.22603347612,0.0,0.0,0.0,2019-03-17T21:24:57.179336,11,EyesClosed
-18756.332249204188,-10931.92528866831,5688.407205153371,-2456.277901682604,27860.51069027313,7960.551436013155,14190.183781407331,10666.073640116887,0.0,0.0,0.0,2019-03-17T21:24:57.180128,11,EyesClosed
-18649.088579307627,-10820.479490814148,5826.585689376079,-2311.9303359902306,27986.149845856413,7958.539779012178,14306.21168687483,10786.907170642278,0.0,0.0,0.0,2019-03-17T21:24:57.186041,11,EyesClosed
-18755.639345126074,-10936.68621023729,5832.374791190004,-2173.930665723165,27910.37743215292,8455.217892553555,14240.586965154049,10881.05271828803,0.0,0.0,0.0,2019-03-17T21:24:57.186879,11,EyesClosed
-18872.650727349606,-11059.553749508113,5701.393568681904,-2298.765158506055,27777.4069043883,8515.142919438234,14116.378321215907,10765.27068200954,0.03,1.014,0.228,2019-03-17T21:24:57.192745,11,EyesClosed
-18786.551807707765,-10964.514132084149,5676.404318380871,-2456.0990877269614,27834.426204493786,8015.536727373211,14166.155656117877,10651.500302732027,0.0,0.0,0.0,2019-03-17T21:24:57.200512,11,EyesClosed
-18657.202262544903,-10827.877918228856,5804.2115931763165,-2350.1965224977166,27977.4550172633,7884.175525209371,14299.416756560417,10748.976260301622,0.0,0.0,0.0,2019-03-17T21:24:57.201104,11,EyesClosed
-18729.018417479805,-10902.376282498393,5842.768352361722,-2178.3786628697712,27939.881734833925,8363.016946675414,14273.466381247805,10874.526008907082,0.0,0.0,0.0,2019-03-17T21:24:57.208546,11,EyesClosed
-18874.729439583953,-11052.80352268261,5715.072836288552,-2264.2540650670608,27789.521549883077,8552.425629189685,14138.305382526563,10789.9470078882,0.0,0.0,0.0,2019-03-17T21:24:57.209008,11,EyesClosed
-18808.61297948515,-10980.115649713953,5663.708527530257,-2439.8270177634977,27813.97435831718,8103.826117971674,14158.690173469804,10657.49057024605,0.0,0.0,0.0,2019-03-17T21:24:57.216589,11,EyesClosed
-18652.01665783127,-10816.299714601008,5794.488584338258,-2362.6911476482333,27974.795159673115,7871.211513425293,14307.59749503106,10739.789693330491,0.0,0.0,0.0,2019-03-17T21:24:57.217099,11,EyesClosed
-18692.07098389518,-10858.38804941035,5866.327091017615,-2169.125040665274,27977.43266551884,8295.715844120485,14314.25831487874,10887.177096268786,0.0,0.0,0.0,2019-03-17T21:24:57.223217,11,EyesClosed
-18846.11920668116,-11024.461510713281,5757.161171097895,-2206.9441922836536,27826.893666612348,8599.632513479295,14177.353880089984,10839.545528834526,0.0,0.0,0.0,2019-03-17T21:24:57.223740,11,EyesClosed
-18836.86558447666,-11013.75502511919,5662.769754263134,-2406.9699534141964,27800.07157326598,8214.333142558711,14148.341315786996,10682.770393225002,0.0,0.0,0.0,2019-03-17T21:24:57.231246,11,EyesClosed
-18677.385887788045,-10847.323935904973,5756.1329908529515,-2398.364531798903,27943.27919999113,7853.12895216095,14278.249654561241,10704.339826624373,0.03,1.016,0.226,2019-03-17T21:24:57.231721,11,EyesClosed
-18670.278033051258,-10843.032400969554,5856.648785668467,-2201.333904425371,27986.373363300965,8192.786060903796,14319.22040214782,10861.00320351162,0.0,0.0,0.0,2019-03-17T21:24:57.238437,11,EyesClosed
-18843.794625257808,-11022.293391501116,5755.350679797016,-2200.4845381360697,27832.481602726177,8574.263283522521,14177.353880089984,10839.344363134429,0.0,0.0,0.0,2019-03-17T21:24:57.238869,11,EyesClosed
-18879.088029752736,-11055.888063417444,5636.841730694978,-2402.566659756501,27772.623631074865,8277.722689833963,14115.081920037499,10674.477896032084,0.0,0.0,0.0,2019-03-17T21:24:57.246186,11,EyesClosed
-18718.289580141256,-10888.67466314729,5711.384798453427,-2435.8707589949086,27912.545551365085,7839.270870598659,14241.43633144335,10662.117381348298,0.0,0.0,0.0,2019-03-17T21:24:57.246795,11,EyesClosed
-18672.915538896985,-10837.220947411173,5832.374791190004,-2246.305614269449,27984.02643013316,8067.862161143084,14309.11741365402,10813.550450033004,0.0,0.0,0.0,2019-03-17T21:24:57.253264,11,EyesClosed
-18825.66736050455,-11009.575248906047,5771.443935804837,-2191.1638606982065,27850.81003317953,8522.071960219379,14187.836848239524,10834.80695901,0.0,0.0,0.0,2019-03-17T21:24:57.253908,11,EyesClosed
-18881.993756531927,-11069.56733102409,5641.937928430788,-2376.459822232702,27752.998799443103,8344.286184821867,14094.74183258317,10673.53912276496,0.0,0.0,0.0,2019-03-17T21:24:57.261306,11,EyesClosed
-18734.60635359363,-10910.713483180223,5689.167164464851,-2456.0320324935956,27872.580632278998,7856.548769062611,14203.550124591606,10625.81814835288,0.0,0.0,0.0,2019-03-17T21:24:57.268209,11,EyesClosed
-18643.45593970489,-10816.724397745658,5833.6711923684115,-2276.7486902175774,27988.54148251313,7971.548494285166,14312.626637533504,10777.430030993228,0.0,0.0,0.0,2019-03-17T21:24:57.268893,11,EyesClosed
-18769.6315371551,-10950.186663888297,5816.05801773763,-2169.639130787746,27892.987774966692,8468.472477015554,14228.137043492443,10847.703915560713,0.032,1.018,0.22,2019-03-17T21:24:57.275685,11,EyesClosed
-18882.351384443213,-11065.342851322039,5676.292559658595,-2337.344269435915,27767.706247294696,8415.52119440093,14111.729158369204,10704.675102791203,0.0,0.0,0.0,2019-03-17T21:24:57.276448,11,EyesClosed
-18764.781208608296,-10943.45878880725,5674.996158480187,-2473.48874491319,27851.27941981309,7902.772176596186,14187.255702883685,10612.205935979599,0.0,0.0,0.0,2019-03-17T21:24:57.283807,11,EyesClosed
-18652.754265398296,-10823.8546042269,5808.391369389459,-2327.1295222198396,27984.272299322165,7882.745013564231,14312.179602644397,10737.241594462586,0.0,0.0,0.0,2019-03-17T21:24:57.284757,11,EyesClosed
-18754.94644104796,-10934.473387536214,5817.644991593957,-2179.3621396258045,27917.351176422977,8384.966359730526,14255.517930450194,10842.294793402529,0.0,0.0,0.0,2019-03-17T21:24:57.291682,11,EyesClosed
-18877.21048321849,-11066.035755400153,5684.786222551611,-2297.446405583192,27778.792712544528,8472.652253228694,14131.421045234329,10734.514681639039,0.0,0.0,0.0,2019-03-17T21:24:57.292474,11,EyesClosed
-18789.591644953685,-10970.213826920251,5653.40437333636,-2457.9319307722963,27828.011253835113,7979.706881011353,14179.410240579873,10617.10096801531,0.0,0.0,0.0,2019-03-17T21:24:57.298550,11,EyesClosed
-18654.78827414373,-10822.669961770769,5786.352549356527,-2354.9127405777863,27976.113912595978,7832.1853676063265,14319.846250992567,10716.476823863606,0.0,0.0,0.0,2019-03-17T21:24:57.299166,11,EyesClosed
-18713.573362061186,-10889.68049164778,5842.276613983705,-2173.215409900595,27957.561964698074,8312.189079784046,14305.183506629886,10855.884654031355,0.0,0.0,0.0,2019-03-17T21:24:57.306490,11,EyesClosed
-18870.05792499279,-11058.056182629607,5709.239030985717,-2258.934349886698,27796.91997729778,8517.109872950301,14156.276185068631,10767.483504710615,0.0,0.0,0.0,2019-03-17T21:24:57.307138,11,EyesClosed
-18827.67901750553,-11011.542202418113,5640.9097481858435,-2450.7123173132322,27803.156114000813,8070.343204777623,14161.32767931553,10623.96295356309,0.038,1.016,0.222,2019-03-17T21:24:57.314463,11,EyesClosed
-18667.819341161176,-10840.618412568381,5769.901665437421,-2383.500621736124,27970.168348570867,7815.153338331383,14313.006617189243,10696.337902109373,0.0,0.0,0.0,2019-03-17T21:24:57.315164,11,EyesClosed
-18702.442193322444,-10873.140200750853,5840.242605238272,-2192.86259327681,27976.002153873702,8227.76654097635,14322.416701604929,10843.457084114205,0.0,0.0,0.0,2019-03-17T21:24:57.320762,11,EyesClosed
-18858.703238809496,-11043.415790011382,5722.068932303064,-2231.9110908402313,27816.50010544063,8537.673477849183,14177.264473112164,10793.52328700105,0.0,0.0,0.0,2019-03-17T21:24:57.327972,11,EyesClosed
-18838.363151355166,-11025.579097936046,5633.891300426877,-2423.5549478000344,27796.584701130952,8172.468325193921,14153.057533867066,10644.571261950883,0.0,0.0,0.0,2019-03-17T21:24:57.328848,11,EyesClosed
-18682.6608994795,-10862.47841864567,5730.115560306974,-2421.9009187103416,27946.117871536957,7796.780204389121,14286.273930820696,10661.11155284781,0.0,0.0,0.0,2019-03-17T21:24:57.336089,11,EyesClosed
-18676.64828022102,-10855.10234297542,5832.218328978816,-2232.179311773695,27987.200377845813,8108.1847081404585,14325.523594084216,10807.068444140965,0.0,0.0,0.0,2019-03-17T21:24:57.336800,11,EyesClosed
-18830.718854751452,-11017.219545509763,5752.176732084362,-2212.755645842033,27843.724530187195,8512.2595444035,14192.888342486423,10796.540772502514,0.0,0.0,0.0,2019-03-17T21:24:57.344426,11,EyesClosed
-18851.461273605975,-11041.404133010405,5650.096315156975,-2393.491851507646,27786.146436470324,8257.49436110191,14135.645524936383,10647.499340474527,0.0,0.0,0.0,2019-03-17T21:24:57.345069,11,EyesClosed
-18705.90671371302,-10881.790325855056,5712.725903120745,-2438.8882444963747,27914.624263599428,7806.324399271536,14252.053410059621,10624.745264619025,0.0,0.0,0.0,2019-03-17T21:24:57.350469,11,EyesClosed
-18642.83009086014,-10815.495051800615,5848.311584986638,-2239.421276977215,28007.294596111133,8020.9011460424845,14339.158158201953,10786.147211330797,0.042,1.01,0.22,2019-03-17T21:24:57.350985,11,EyesClosed
-18793.659662444552,-10976.137039200907,5794.600343060535,-2174.578866312369,27877.430960825797,8486.353872579799,14225.05250275761,10819.786586736034,0.0,0.0,0.0,2019-03-17T21:24:57.358566,11,EyesClosed
-18864.425285390054,-11045.494502245725,5666.591902564991,-2353.348118465915,27774.031790975547,8335.1666730841,14127.442434721284,10667.459448273117,0.0,0.0,0.0,2019-03-17T21:24:57.359136,11,EyesClosed
-18721.351769131634,-10892.832087615978,5705.215716983762,-2448.879474267897,27885.857568485448,7838.1756351203485,14229.589906882038,10612.027122023956,0.0,0.0,0.0,2019-03-17T21:24:57.366611,11,EyesClosed
-18631.609515143577,-10799.960589404178,5842.410724450437,-2287.4328240672144,28000.231444863257,7919.04424655965,14337.973515745822,10757.984013317111,0.0,0.0,0.0,2019-03-17T21:24:57.367259,11,EyesClosed
-18753.918260803017,-10931.277088079107,5826.988020776274,-2172.2989883779273,27909.349251907977,8423.254897982466,14260.301203763629,10843.121807947375,0.0,0.0,0.0,2019-03-17T21:24:57.373899,11,EyesClosed
-18859.865529521172,-11044.131045833952,5689.480088887226,-2322.9497460066973,27784.470055636175,8410.246182709478,14147.670763453338,10717.63911457528,0.0,0.0,0.0,2019-03-17T21:24:57.374545,11,EyesClosed
-18742.161243219525,-10918.178965828296,5693.101071488985,-2450.8911312688747,27869.920774688813,7911.08702553356,14228.58407838155,10636.14465429123,0.0,0.0,0.0,2019-03-17T21:24:57.380415,11,EyesClosed
-18634.11291052257,-10801.860487682878,5818.2931921831605,-2325.073161729951,27995.023488405168,7854.98414695074,14345.327239671618,10748.41746669024,0.0,0.0,0.0,2019-03-17T21:24:57.388229,11,EyesClosed
-18731.857089025627,-10905.10319532194,5829.983154533285,-2175.0706046903856,27929.15289749538,8350.36585931371,14290.721927967303,10857.516331376593,0.0,0.0,0.0,2019-03-17T21:24:57.389200,11,EyesClosed
-18856.624526575153,-11037.336115519538,5707.830871085032,-2280.436728052703,27791.84613130643,8470.10415436079,14164.501627028183,10761.13560928531,0.04,1.012,0.224,2019-03-17T21:24:57.396238,11,EyesClosed
-18770.592662166677,-10946.92330919782,5681.03112948312,-2441.749267786654,27837.17546906179,7988.424061348923,14200.979673979244,10642.872529372278,0.0,0.0,0.0,2019-03-17T21:24:57.396913,11,EyesClosed
-18630.000189542796,-10792.450403267194,5814.761616559222,-2345.3238422064596,27988.362668557485,7816.78501567662,14338.308791912652,10736.347524684374,0.0,0.0,0.0,2019-03-17T21:24:57.404307,11,EyesClosed
-18698.664748509498,-10866.658194858814,5861.119134559529,-2170.153220910218,27961.67468567785,8273.028823498347,14315.711178268335,10868.28987220405,0.0,0.0,0.0,2019-03-17T21:24:57.405024,11,EyesClosed
-18848.376732871144,-11028.171900292862,5742.610185457491,-2234.9062245972427,27811.672128638285,8507.878602490258,14174.492856799705,10799.491202770616,0.0,0.0,0.0,2019-03-17T21:24:57.414015,11,EyesClosed
-18803.427374771523,-10976.405260134372,5676.627835825424,-2422.392657088358,27815.538980429053,8073.807725168196,14168.390830563407,10655.143637078243,0.0,0.0,0.0,2019-03-17T21:24:57.414736,11,EyesClosed
-18652.64250667602,-10814.71274074468,5782.3739388434815,-2385.1322990813615,27959.77478739915,7770.069869765029,14292.174791356898,10696.606123042837,0.0,0.0,0.0,2019-03-17T21:24:57.420021,11,EyesClosed
-18678.816399433184,-10845.826369026467,5862.30377701566,-2191.3650263983045,27970.39186601542,8160.4877901658765,14305.16115488543,10848.218005683186,0.0,0.0,0.0,2019-03-17T21:24:57.420805,11,EyesClosed
-18834.384540842122,-11017.75598737669,5760.2457118327275,-2206.631267861279,27817.46123045221,8501.173079153667,14165.507455528672,10818.132557646342,0.0,0.0,0.0,2019-03-17T21:24:57.427111,11,EyesClosed
-18826.695540749497,-11008.591772150014,5672.783335779111,-2394.3188660524925,27789.946233027727,8161.337156455178,14138.327734271019,10672.801515197936,0.0,0.0,0.0,2019-03-17T21:24:57.428005,11,EyesClosed
-18676.424762776467,-10838.38323812285,5768.5158572811915,-2393.7153689521992,27940.596990656497,7777.535352413101,14278.137895838965,10693.096899163354,0.032,1.014,0.22,2019-03-17T21:24:57.433629,11,EyesClosed
-18656.487006722335,-10819.160737891287,5878.6876057014,-2194.516622366503,27995.73874422774,8080.736765949341,14333.12318719902,10852.062505729498,0.0,0.0,0.0,2019-03-17T21:24:57.434354,11,EyesClosed
-18809.574104496733,-10983.088431726508,5800.031816963175,-2163.872380718277,27855.593306492963,8505.263448388989,14207.52873510465,10861.025555256076,0.0,0.0,0.0,2019-03-17T21:24:57.440761,11,EyesClosed
-18849.561375327277,-11028.462472970781,5678.281864915117,-2358.824295857465,27779.127988711356,8260.623605325653,14136.092559825489,10705.12213768031,0.0,0.0,0.0,2019-03-17T21:24:57.448397,11,EyesClosed
-18696.004890919317,-10864.668889602292,5736.306993521094,-2418.8387297199642,27905.28123441711,7799.998855590685,14253.886253104956,10676.422497799695,0.0,0.0,0.0,2019-03-17T21:24:57.449281,11,EyesClosed
-18637.711541379875,-10803.872144683855,5863.354309005059,-2240.6282711778013,27991.82718894806,7982.970235701828,14339.180509946407,10826.46975832817,0.0,0.0,0.0,2019-03-17T21:24:57.455469,11,EyesClosed
-18781.14268554958,-10956.467504080238,5821.4671398958135,-2166.465183075092,27873.765274735128,8459.15179957769,14233.121482505976,10871.240302472152,0.0,0.0,0.0,2019-03-17T21:24:57.455939,11,EyesClosed
-18863.575919100753,-11041.247670799217,5686.5743621080355,-2348.2519207301048,27763.01238095908,8328.952888125526,14123.910859097346,10718.510832609038,0.0,0.0,0.0,2019-03-17T21:24:57.463346,11,EyesClosed
-18726.13504244507,-10888.518200936103,5721.08545554703,-2441.950433486752,27875.24048986918,7836.990992664218,14224.627819612959,10662.206788326119,0.0,0.0,0.0,2019-03-17T21:24:57.463994,11,EyesClosed
-18622.981741783828,-10784.627292707837,5859.599215936568,-2269.394966291781,27997.906863439905,7902.436900429357,14338.21938493483,10805.883801684833,0.0,0.0,0.0,2019-03-17T21:24:57.471070,11,EyesClosed
-18741.84831879715,-10910.042930846565,5843.371849462014,-2143.2417205860284,27907.449353629276,8405.731130329506,14256.702572906324,10889.099346291941,0.03,1.012,0.22,2019-03-17T21:24:57.471742,11,EyesClosed
-18857.92092775356,-11039.61599345398,5705.103958261485,-2290.1373851463063,27777.317497410477,8415.05180776737,14132.739798157192,10761.426181963228,0.0,0.0,0.0,2019-03-17T21:24:57.479220,11,EyesClosed
-18765.71998187542,-10939.994268416676,5691.581152866024,-2440.676384052799,27844.70800694323,7905.99082779775,14189.267359884663,10654.87541614478,0.0,0.0,0.0,2019-03-17T21:24:57.479910,11,EyesClosed
-18629.530802909234,-10794.685577712724,5835.7275528582995,-2305.537737076013,27991.089581381035,7837.259213597681,14322.439053349382,10772.155019301776,0.0,0.0,0.0,2019-03-17T21:24:57.485884,11,EyesClosed
-18717.507269085323,-10889.30051199204,5859.129829303006,-2151.1095346342963,27937.355987710478,8327.678838691574,14275.34392778205,10883.556113667026,0.0,0.0,0.0,2019-03-17T21:24:57.486533,11,EyesClosed
-18854.836387018728,-11034.832720140545,5730.56259519608,-2258.889646397787,27794.88596855235,8469.545360749407,14144.429760507317,10786.594246219904,0.0,0.0,0.0,2019-03-17T21:24:57.493944,11,EyesClosed
-18785.76949665183,-10956.534559313603,5684.585056851513,-2439.335279385481,27825.597265433942,7991.10627068356,14167.720278229748,10654.718953933592,0.0,0.0,0.0,2019-03-17T21:24:57.494581,11,EyesClosed
-18638.87383209155,-10804.967380162167,5814.694561325856,-2353.1693045102725,27979.48902600873,7794.410919476858,14307.865715964523,10740.706114853157,0.0,0.0,0.0,2019-03-17T21:24:57.501025,11,EyesClosed
-18690.4616582944,-10863.707764590712,5876.094803344585,-2167.5827702978577,27967.039104347125,8247.413724352566,14300.713157738825,10883.019671800099,0.0,0.0,0.0,2019-03-17T21:24:57.501713,11,EyesClosed
-18845.761578769874,-11031.122330560962,5751.5508832396135,-2229.1618262722286,27810.241616993146,8501.038968686935,14156.499702513183,10811.38233082084,0.0,0.0,0.0,2019-03-17T21:24:57.509088,11,EyesClosed
-18827.902534950084,-11005.171955248352,5660.2216553952285,-2431.24394789266,27794.84126506344,8072.287806545235,14141.680495939316,10654.763657422502,0.034,1.006,0.218,2019-03-17T21:24:57.515449,11,EyesClosed
-18661.65025969151,-10825.218060638674,5776.540133540647,-2384.2158775586936,27958.25486877619,7767.700584852766,14292.979454157288,10711.872364505813,0.0,0.0,0.0,2019-03-17T21:24:57.516105,11,EyesClosed
-18663.661916692487,-10830.604831052404,5869.076355585618,-2179.3397878813494,27987.848578435016,8148.529606882287,14323.847213250068,10873.25195947313,0.0,0.0,0.0,2019-03-17T21:24:57.523520,11,EyesClosed
-18824.527421537332,-11002.735615102723,5766.705365980311,-2187.0064362295197,27833.353320759932,8505.710483278095,14186.406336594384,10845.647555070826,0.0,0.0,0.0,2019-03-17T21:24:57.524172,11,EyesClosed
-18835.882107720627,-11013.285638485628,5659.841675739489,-2390.0496828615287,27778.63625033334,8172.065993793726,14138.79712090458,10682.613931013815,0.0,0.0,0.0,2019-03-17T21:24:57.531614,11,EyesClosed
-18661.784370158242,-10828.14613916232,5758.681089720856,-2393.6706654632885,27933.690301619805,7775.434288434302,14282.608244730025,10696.606123042837,0.0,0.0,0.0,2019-03-17T21:24:57.532452,11,EyesClosed
-18639.11970128056,-10804.721510973157,5871.512695731247,-2203.5914306153572,27994.799970960616,8048.326736489146,14342.734437314803,10850.162607450797,0.0,0.0,0.0,2019-03-17T21:24:57.538741,11,EyesClosed
-18796.47598224592,-10971.398469376383,5796.947276228342,-2164.8111539853994,27856.93441116028,8487.359701080288,14218.078758487554,10864.557130880015,0.0,0.0,0.0,2019-03-17T21:24:57.539409,11,EyesClosed
-18832.842270474706,-11014.403225708393,5679.93589400481,-2350.7776678535542,27777.65277357731,8271.01716649737,14143.602745962471,10714.59927732936,0.0,0.0,0.0,2019-03-17T21:24:57.546183,11,EyesClosed
-18684.851370436118,-10848.597985338925,5730.987278340731,-2425.3207356120033,27901.52614134862,7795.30498925507,14252.209872270809,10672.421535542195,0.0,0.0,0.0,2019-03-17T21:24:57.546831,11,EyesClosed
-18620.277180704736,-10780.626330450337,5854.458314711847,-2251.6923846831783,27996.431648305854,7952.86243592053,14340.231041935807,10816.366769834372,0.0,0.0,0.0,2019-03-17T21:24:57.554131,11,EyesClosed
-18745.670467099008,-10922.15757634134,5819.679000339389,-2160.296101605428,27887.779818508607,8445.025497081935,14243.380933210961,10874.973043796188,0.036000000000000004,1.014,0.22,2019-03-17T21:24:57.555004,11,EyesClosed
-18838.519613566354,-11022.80748162359,5685.7920510521,-2331.599871110901,27774.769398542572,8344.442647033055,14134.639696435894,10728.680876336202,0.0,0.0,0.0,2019-03-17T21:24:57.562269,11,EyesClosed
-18718.55780107472,-10887.378261968883,5704.4781094167365,-2448.432439378791,27871.820672967515,7836.543957775111,14219.844546299524,10651.455599243118,0.0,0.0,0.0,2019-03-17T21:24:57.562915,11,EyesClosed
-18596.67373855993,-10759.928615084722,5857.788724635688,-2282.046053653485,28011.474372324275,7879.74987980722,14347.27184143923,10799.04416788151,0.0,0.0,0.0,2019-03-17T21:24:57.568703,11,EyesClosed
-18720.167126675504,-10896.765994640113,5847.05988729714,-2159.7596597385004,27922.38031892542,8373.254045635944,14268.616052701003,10881.857381088423,0.0,0.0,0.0,2019-03-17T21:24:57.575643,11,EyesClosed
-18839.68190427803,-11020.237031011227,5712.41297869837,-2296.5523358049795,27787.219320204178,8409.128595486713,14142.865138395446,10754.65360339327,0.0,0.0,0.0,2019-03-17T21:24:57.576400,11,EyesClosed
-18732.482937870376,-10906.980741856187,5699.516022147658,-2444.0291457210956,27855.88387917088,7912.986923812262,14202.365482135474,10652.0143928545,0.0,0.0,0.0,2019-03-17T21:24:57.583875,11,EyesClosed
-18598.97596823883,-10766.589434932404,5835.124055758007,-2327.375391408848,27996.25283435021,7811.778224918631,14331.804434276157,10759.123952284332,0.0,0.0,0.0,2019-03-17T21:24:57.584527,11,EyesClosed
-18682.6608994795,-10859.751505822123,5864.673061927922,-2163.514752806992,27951.72815939524,8294.285332475345,14293.694709979858,10878.236398486662,0.0,0.0,0.0,2019-03-17T21:24:57.591778,11,EyesClosed
-18834.853927475684,-11020.728769389245,5721.4430834583145,-2271.1384023592955,27796.629404619864,8451.887482629714,14149.838882665503,10778.637025193813,0.0,0.0,0.0,2019-03-17T21:24:57.592408,11,EyesClosed
-18767.552824920753,-10947.705620253757,5668.7376700327,-2449.393564390369,27824.12205029989,7987.86526773754,14174.09052539951,10646.337049762851,0.038,1.018,0.218,2019-03-17T21:24:57.598473,11,EyesClosed
-18614.35396842408,-10782.07919383993,5797.14844192844,-2370.380147740859,27980.338392298032,7767.655881363855,14319.73449227029,10725.059893734444,0.0,0.0,0.0,2019-03-17T21:24:57.599389,11,EyesClosed
-18648.50743395179,-10821.686485014736,5871.78091666471,-2173.57303781188,27982.73002895475,8214.154328603068,14330.55273658666,10879.44339268725,0.0,0.0,0.0,2019-03-17T21:24:57.606391,11,EyesClosed
-18809.01531088535,-10990.50921088567,5748.332232038049,-2226.2337477485835,27822.311558999012,8488.92432319216,14184.37232784895,10814.37746457785,0.0,0.0,0.0,2019-03-17T21:24:57.607275,11,EyesClosed
-18796.185409568003,-10965.36349837345,5653.046745425075,-2430.215767647716,27797.702288353717,8078.993329881827,14155.717391457249,10651.008564354011,0.0,0.0,0.0,2019-03-17T21:24:57.614639,11,EyesClosed
-18629.173174997948,-10797.747766703102,5766.101868880019,-2397.783386443065,27953.940982096316,7749.215692188227,14295.348739069552,10688.559495038926,0.0,0.0,0.0,2019-03-17T21:24:57.615284,11,EyesClosed
-18627.58620114162,-10798.977112648143,5859.040422325185,-2197.064721234408,27982.81943593257,8109.056426174216,14327.35643712955,10840.394895123827,0.0,0.0,0.0,2019-03-17T21:24:57.621720,11,EyesClosed
-18784.3836884956,-10965.65407105137,5767.890008436443,-2188.3922443857487,27837.957780117726,8495.741605251027,14198.230409411242,10825.061598427486,0.0,0.0,0.0,2019-03-17T21:24:57.622429,11,EyesClosed
-18803.3379677937,-10984.518943371648,5657.7853152496,-2384.8640781478975,27783.084247479946,8192.361377759145,14147.603708219971,10667.481800017573,0.0,0.0,0.0,2019-03-17T21:24:57.627965,11,EyesClosed
-18641.6007449151,-10814.66803725577,5740.33030752305,-2416.469444807702,27926.85066781648,7768.415840675336,14279.099020850543,10666.543026750449,0.0,0.0,0.0,2019-03-17T21:24:57.635956,11,EyesClosed
-18614.19750621289,-10785.923693886245,5856.760544390744,-2234.7721141305105,27998.97974717376,8018.107177985571,14349.21644320684,10819.451310569206,0.03,1.016,0.22,2019-03-17T21:24:57.636795,11,EyesClosed
-18763.596566152166,-10945.202224874762,5791.560505814613,-2188.638113574757,27872.692391001274,8468.383070037731,14236.988334296744,10842.294793402529,0.0,0.0,0.0,2019-03-17T21:24:57.644069,11,EyesClosed
-18828.14840413909,-11013.12917627444,5659.193475150285,-2386.272238048582,27775.35054389841,8266.457410628487,14147.51430124215,10679.30587283443,0.0,0.0,0.0,2019-03-17T21:24:57.644970,11,EyesClosed
-18683.68907972444,-10851.235491184652,5708.434368185326,-2468.660768110844,27896.13937093489,7784.486744938701,14256.143779294942,10635.317639746385,0.0,0.0,0.0,2019-03-17T21:24:57.651275,11,EyesClosed
-18601.72523280683,-10770.61274893436,5853.1619135334395,-2282.180164120217,28011.74259325774,7928.7449036532535,14366.762562604257,10794.529115501538,0.0,0.0,0.0,2019-03-17T21:24:57.652044,11,EyesClosed
-18738.473205384398,-10922.314038552528,5818.5837648610795,-2182.8490117608326,27903.448391371774,8418.069293268836,14274.382802770473,10854.476494130671,0.0,0.0,0.0,2019-03-17T21:24:57.658648,11,EyesClosed
-18830.02595067334,-11023.142757790418,5676.739594547701,-2350.6212056423674,27776.915166010283,8343.615632488207,14153.526920500628,10704.004550457545,0.0,0.0,0.0,2019-03-17T21:24:57.659463,11,EyesClosed
-18698.41887932049,-10878.974006053688,5695.2021354677845,-2463.497515141668,27873.60881252394,7842.444818311313,14234.596697640027,10626.958087320101,0.0,0.0,0.0,2019-03-17T21:24:57.666827,11,EyesClosed
-18591.86811350204,-10762.119086041343,5837.20276799235,-2305.7836062650213,28005.72997399926,7851.854902726996,14355.430228165416,10762.476713952627,0.0,0.0,0.0,2019-03-17T21:24:57.667748,11,EyesClosed
-18709.304178870225,-10889.032291058576,5840.533177916191,-2163.4029940847154,27930.80692658507,8355.84203670526,14289.671395977903,10860.176188966774,0.0,0.0,0.0,2019-03-17T21:24:57.673855,11,EyesClosed
-18829.265991361855,-11015.051426297598,5707.428539684837,-2288.639818267801,27795.48946565264,8425.959459061558,14165.216882850753,10746.02583003352,0.026000000000000002,1.014,0.224,2019-03-17T21:24:57.674496,11,EyesClosed
-18742.697685086452,-10922.135224596885,5675.465545113748,-2459.3177389285256,27841.846983652948,7920.921793093896,14205.025339725655,10622.733607618047,0.0,0.0,0.0,2019-03-17T21:24:57.681402,11,EyesClosed
-18603.982758996815,-10779.374632760839,5807.452596122336,-2357.1702667677723,27987.714467968282,7792.131041542416,14338.487605868293,10721.707132066147,0.0,0.0,0.0,2019-03-17T21:24:57.682046,11,EyesClosed
-18680.135152356048,-10860.556168622514,5846.29992798566,-2188.928686252676,27951.884621606427,8268.267901929368,14309.78796598768,10846.988659738143,0.0,0.0,0.0,2019-03-17T21:24:57.688295,11,EyesClosed
-18815.38555805511,-11002.668559869357,5722.471263703259,-2272.8147831934434,27805.59245414644,8458.034212354924,14174.738725988715,10760.50976044056,0.0,0.0,0.0,2019-03-17T21:24:57.696084,11,EyesClosed
-18752.33128694669,-10932.64054449088,5668.581207821514,-2451.695794069266,27827.430108479275,8005.567849346144,14191.27901688564,10626.376941964263,0.0,0.0,0.0,2019-03-17T21:24:57.696498,11,EyesClosed
-18603.44631712989,-10774.345490258394,5791.33698837006,-2382.2936275355373,27981.947717898813,7761.844427805475,14334.173719188419,10698.01428294352,0.0,0.0,0.0,2019-03-17T21:24:57.703595,11,EyesClosed
-18639.387922214024,-10811.359979076384,5867.4223264959255,-2182.7819565274667,27988.317965068578,8190.684996924997,14348.143559472986,10848.173302194275,0.0,0.0,0.0,2019-03-17T21:24:57.704405,11,EyesClosed
-18804.835534672206,-10987.044690495097,5748.600452971513,-2223.81975934741,27829.50882071362,8489.505468547997,14206.18763043733,10793.567990489959,0.0,0.0,0.0,2019-03-17T21:24:57.710878,11,EyesClosed
-18786.6859181745,-10964.31296638405,5662.92621647432,-2413.697828495244,27811.158038515812,8106.709493006408,14188.954435462289,10643.364267750296,0.0,0.0,0.0,2019-03-17T21:24:57.711400,11,EyesClosed
-18626.73683485232,-10793.970321890154,5768.292339836638,-2388.976799127674,27967.1508630694,7757.329375425503,14335.134844199998,10680.44581180165,0.03,1.02,0.224,2019-03-17T21:24:57.719078,11,EyesClosed
-18620.992436527307,-10788.941179387712,5867.623492196023,-2193.8460700328437,28008.792162989637,8095.846545201129,14379.950091832889,10836.885671244345,0.0,0.0,0.0,2019-03-17T21:24:57.720006,11,EyesClosed
-18775.867673858127,-10953.181797645308,5780.518744053691,-2184.2348199170615,27867.506786287642,8492.165326138178,14253.662735660404,10829.219022896174,0.0,0.0,0.0,2019-03-17T21:24:57.726934,11,EyesClosed
-18797.079479346216,-10979.266283424651,5668.044765954586,-2386.3839967708586,27808.20760824771,8206.2865145548,14192.553066319593,10668.554683751427,0.0,0.0,0.0,2019-03-17T21:24:57.727584,11,EyesClosed
-18636.01280880127,-10806.286133085028,5749.8521506610105,-2425.8795292233863,27949.895316349903,7772.282692466104,14320.516803326227,10659.904558647224,0.0,0.0,0.0,2019-03-17T21:24:57.733632,11,EyesClosed
-18593.05275595817,-10758.811027861957,5877.59237022309,-2237.431971720692,28026.092413198046,8000.516355099244,14395.7974786517,10814.958609933688,0.0,0.0,0.0,2019-03-17T21:24:57.734291,11,EyesClosed
-18746.922164788506,-10922.895183908366,5815.543927615157,-2180.8820582487656,27895.46881860123,8454.949671620092,14277.199122571841,10839.14319743433,0.0,0.0,0.0,2019-03-17T21:24:57.741826,11,EyesClosed
-18814.692653976996,-10996.588885377514,5680.718205060745,-2365.507467449602,27795.601224374917,8286.35046319371,14180.684290013825,10683.373890325296,0.0,0.0,0.0,2019-03-17T21:24:57.742572,11,EyesClosed
-18669.830998162153,-10847.100418460419,5720.347847980005,-2449.5723783460116,27913.216103698745,7800.44589047979,14283.859942419524,10631.450787955617,0.0,0.0,0.0,2019-03-17T21:24:57.748661,11,EyesClosed
-18586.280177388213,-10757.984013317111,5857.721669402322,-2275.6534547392675,28027.008834720713,7902.9733422962845,14386.633263425025,10771.931501857222,0.0,0.0,0.0,2019-03-17T21:24:57.749445,11,EyesClosed
-18708.3654056031,-10879.957482809721,5838.63327963749,-2164.162953396196,27929.935208551313,8400.791394804883,14298.098003637553,10839.880805001356,0.034,1.02,0.222,2019-03-17T21:24:57.755893,11,EyesClosed
-18801.371014281634,-10989.726899829735,5708.724940863245,-2316.2218709256495,27815.36016647341,8367.911978711127,14188.261531384174,10708.340788881873,0.0,0.0,0.0,2019-03-17T21:24:57.763129,11,EyesClosed
-18692.205094361914,-10873.363718195405,5712.502385676192,-2448.7677155456204,27900.654423314863,7861.197931909315,14262.268157275696,10620.34197096133,0.0,0.0,0.0,2019-03-17T21:24:57.764030,11,EyesClosed
-18580.24520638528,-10751.300841724973,5847.5292739307015,-2308.4211121107473,28031.367424889497,7835.426370552346,14382.453487211882,10741.26490846454,0.0,0.0,0.0,2019-03-17T21:24:57.771198,11,EyesClosed
-18682.88441692405,-10860.310299433506,5856.402916479459,-2160.0055289275087,27964.803929901595,8341.112237109213,14329.256335408252,10848.039191727543,0.0,0.0,0.0,2019-03-17T21:24:57.771967,11,EyesClosed
-18808.523572507333,-10986.910580028365,5721.46543520277,-2276.949855917675,27827.36305324591,8436.53183418892,14205.941761248323,10743.611841632348,0.0,0.0,0.0,2019-03-17T21:24:57.779165,11,EyesClosed
-18726.4703186119,-10897.861230118422,5682.416937639348,-2445.1243811994054,27874.05584741305,7940.233700303281,14248.365372224496,10622.733607618047,0.0,0.0,0.0,2019-03-17T21:24:57.779814,11,EyesClosed
-18578.926453462416,-10746.785789345002,5819.746055572755,-2336.763124080077,28032.037977223157,7793.360387487458,14394.434022239928,10722.958829755644,0.0,0.0,0.0,2019-03-17T21:24:57.785695,11,EyesClosed
-18645.02056181676,-10822.312333859485,5866.148277061972,-2164.5876365408467,28003.584206531552,8263.462276871476,14372.596367907092,10853.71653481919,0.0,0.0,0.0,2019-03-17T21:24:57.786675,11,EyesClosed
-18796.878313646117,-10974.88534151141,5741.336136023538,-2247.4008497477594,27848.731320945182,8473.702785218095,14230.126348748965,10769.472809967137,0.0,0.0,0.0,2019-03-17T21:24:57.793763,11,EyesClosed
-18744.441121153966,-10916.122605338407,5690.642379598901,-2422.884395466375,27870.457216555744,8040.5036259297885,14248.432427457861,10638.335125247851,0.04,1.016,0.22,2019-03-17T21:24:57.794451,11,EyesClosed
-18594.01388096975,-10761.9402720857,5804.0327792206745,-2370.9389413522413,28021.107974184513,7766.627701118911,14385.873304113544,10692.269884618509,0.0,0.0,0.0,2019-03-17T21:24:57.802081,11,EyesClosed
-18622.847631317098,-10787.398909020294,5877.882942901009,-2181.0161687154973,28029.534581844164,8173.205932760947,14397.496211230304,10835.633973554848,0.0,0.0,0.0,2019-03-17T21:24:57.802795,11,EyesClosed
-18778.57223493722,-10954.969937201731,5770.527514282169,-2214.7225993541,27876.76040849214,8495.160459895189,14258.267195018196,10790.952836388688,0.0,0.0,0.0,2019-03-17T21:24:57.809001,11,EyesClosed
-18767.91045283204,-10953.561777301047,5680.986425994209,-2411.4850057941685,27850.832384923982,8133.151606697036,14233.903793561913,10638.938622348145,0.0,0.0,0.0,2019-03-17T21:24:57.809648,11,EyesClosed
-18605.323863664136,-10777.631196693326,5777.210685874305,-2409.76392147111,28003.807723976104,7758.134038225894,14372.574016162636,10657.848198157335,0.0,0.0,0.0,2019-03-17T21:24:57.815648,11,EyesClosed
-18580.826351741118,-10751.636117891803,5890.221105840338,-2202.8091195594216,28064.336247961077,8084.581265995654,14432.18611862494,10824.56986004947,0.0,0.0,0.0,2019-03-17T21:24:57.823264,11,EyesClosed
-18735.366312905113,-10916.055550105042,5805.396235632448,-2177.283427391461,27924.81665907105,8498.088538418835,14306.636370019482,10823.631086782347,0.0,0.0,0.0,2019-03-17T21:24:57.824012,11,EyesClosed
-18766.2787754868,-10945.7833702306,5690.240048198706,-2367.9438075952303,27858.141405360868,8237.690715514507,14245.52670067867,10668.465276773606,0.0,0.0,0.0,2019-03-17T21:24:57.831583,11,EyesClosed
-18621.506526649777,-10787.42126076475,5755.6636042193895,-2417.944659941752,27988.563834257584,7787.2807129956145,14366.762562604257,10646.985250352056,0.0,0.0,0.0,2019-03-17T21:24:57.832350,11,EyesClosed
-18559.70395323085,-10723.607030344849,5887.807117439165,-2222.0092680465305,28083.04465807017,7994.548439329677,14453.95671772441,10804.050958639498,0.036000000000000004,1.014,0.218,2019-03-17T21:24:57.838720,11,EyesClosed
-18710.734690515364,-10884.316072978507,5831.078390011596,-2157.8150579708886,27955.796176886106,8463.778610679938,14336.610059334047,10837.37740962236,0.0,0.0,0.0,2019-03-17T21:24:57.839472,11,EyesClosed
-18781.47796171641,-10958.45680933676,5699.851298314488,-2338.8641880588757,27856.576783249,8323.096731078236,14240.63166864296,10687.106631649332,0.0,0.0,0.0,2019-03-17T21:24:57.846166,11,EyesClosed
-18647.188681028925,-10811.918772687766,5731.411961485382,-2436.0942764394613,27965.072150835058,7832.297126328604,14335.760693044745,10629.193261765631,0.0,0.0,0.0,2019-03-17T21:24:57.846826,11,EyesClosed
-18563.23552885479,-10726.736274568591,5860.225064781316,-2279.7214722301333,28073.187538765378,7905.119109763994,14434.555403537202,10761.515588941049,0.0,0.0,0.0,2019-03-17T21:24:57.854025,11,EyesClosed
-18693.009757162305,-10870.122715249387,5841.293137227672,-2166.7110522641005,27977.410313774388,8403.339493672787,14350.781065318712,10835.8574909994,0.0,0.0,0.0,2019-03-17T21:24:57.854866,11,EyesClosed
-18798.018252613336,-10981.613216592457,5707.1826704958285,-2309.851623755887,27854.006332636636,8391.314255155832,14238.575308153071,10709.145451682265,0.0,0.0,0.0,2019-03-17T21:24:57.861879,11,EyesClosed
-18689.411126305,-10860.757334322612,5704.343998950005,-2443.492703854168,27933.645598130894,7884.533153120656,14314.057149178643,10619.380845949752,0.0,0.0,0.0,2019-03-17T21:24:57.862273,11,EyesClosed
-18574.791380738185,-10737.68862935169,5837.940375559375,-2310.5892313229124,28065.342076461566,7830.084303627527,14438.310496605694,10731.765417071036,0.0,0.0,0.0,2019-03-17T21:24:57.868490,11,EyesClosed
-18665.02537310426,-10830.761293263591,5860.359175248048,-2152.8753224462657,28012.010814191202,8328.84112940325,14391.304778016183,10841.244261413129,0.0,0.0,0.0,2019-03-17T21:24:57.868848,11,EyesClosed
-18790.70923217645,-10963.575358817025,5730.674353918356,-2266.444536023681,27870.77014097812,8443.326764503332,14258.9153956074,10736.056952006455,0.03,1.014,0.218,2019-03-17T21:24:57.875577,11,EyesClosed
-18712.142850416047,-10878.39286069785,5690.240048198706,-2439.424686363302,27910.064507730545,7958.293909823169,14290.654872733936,10610.395444678717,0.0,0.0,0.0,2019-03-17T21:24:57.884254,11,EyesClosed
-18577.29477611718,-10735.632268861804,5819.5225381282025,-2344.854455572898,28061.966963048813,7782.810364104554,14430.308572090695,10699.511849822027,0.0,0.0,0.0,2019-03-17T21:24:57.884551,11,EyesClosed
-18641.824262359652,-10805.012083651076,5879.11228884605,-2155.356366080805,28049.829965809582,8253.672212800051,14426.9558104224,10841.043095713032,0.0,0.0,0.0,2019-03-17T21:24:57.893294,11,EyesClosed
-18789.301072275768,-10959.417934348337,5758.994014143231,-2219.9976110455527,27901.481437859708,8499.228477386056,14294.946407669355,10774.434897236217,0.0,0.0,0.0,2019-03-17T21:24:57.893567,11,EyesClosed
-18749.917298545515,-10911.8757738919,5681.321702161039,-2416.692962252255,27898.508655847152,8064.487047730333,14292.443012290361,10623.20299425161,0.0,0.0,0.0,2019-03-17T21:24:57.899421,11,EyesClosed
-18594.617378070045,-10741.51077765355,5800.232982663272,-2365.596874427423,28059.240050225268,7781.625721648422,14444.18900539744,10683.709166492124,0.0,0.0,0.0,2019-03-17T21:24:57.899685,11,EyesClosed
-18616.92441903644,-10772.177371046231,5881.705091202866,-2174.020072700986,28076.94263183387,8172.75889787184,14460.304613149718,10830.850700241412,0.0,0.0,0.0,2019-03-17T21:24:57.906089,11,EyesClosed
-18768.357487721147,-10934.49573928067,5782.083366165562,-2190.0686252198966,27928.929380050824,8519.903841007213,14325.903573739955,10798.32891205894,0.0,0.0,0.0,2019-03-17T21:24:57.906342,11,EyesClosed
-18761.897833573563,-10923.20810833074,5683.467469628748,-2386.7416246821435,27892.94307147778,8178.100964796658,14293.49354427976,10646.940546863145,0.0,0.0,0.0,2019-03-17T21:24:57.914146,11,EyesClosed
-18594.975005981327,-10733.55355662746,5781.949255698831,-2385.244057803638,28047.393625663954,7797.942495100796,14435.85180471561,10667.571206995393,0.034,1.018,0.212,2019-03-17T21:24:57.914538,11,EyesClosed
-18582.927415719918,-10726.803329801956,5887.270675572237,-2195.567154355902,28098.869693144527,8087.509344519299,14485.383270428572,10819.875993713857,0.0,0.0,0.0,2019-03-17T21:24:57.920747,11,EyesClosed
-18737.51208037282,-10892.832087615978,5809.933639756875,-2167.9403982091426,27961.048836833103,8507.2080501566,14358.827693322623,10823.161700148787,0.0,0.0,0.0,2019-03-17T21:24:57.921164,11,EyesClosed
-18782.77436289482,-10941.134207383897,5682.416937639348,-2366.8038686280097,27883.778856251105,8259.930701247538,14285.178695342387,10658.474047002084,0.0,0.0,0.0,2019-03-17T21:24:57.928809,11,EyesClosed
-18631.20718374338,-10777.877065882334,5738.609223199991,-2425.4101425898248,28018.381061360964,7798.143660800894,14408.292103802218,10632.322505989374,0.0,0.0,0.0,2019-03-17T21:24:57.929346,11,EyesClosed
-18574.321994104623,-10722.958829755644,5863.756640405255,-2243.601053190357,28110.13497235,7976.890561209984,14498.213171745918,10784.448478752194,0.0,0.0,0.0,2019-03-17T21:24:57.935769,11,EyesClosed
-18716.255571395825,-10877.29762521954,5822.316506185116,-2161.5254475504694,27996.386944816943,8452.267462285456,14396.065699585164,10831.498900830615,0.0,0.0,0.0,2019-03-17T21:24:57.943796,11,EyesClosed
-18807.517744006844,-10975.980576989721,5680.9417225052985,-2344.6756416172557,27881.498978316664,8319.676914176574,14282.250616818741,10671.438058786161,0.0,0.0,0.0,2019-03-17T21:24:57.944246,11,EyesClosed
-18665.874739393563,-10823.921659460266,5712.524737420647,-2441.615157319922,27994.978784916257,7826.932707659329,14382.408783722973,10609.791947578424,0.0,0.0,0.0,2019-03-17T21:24:57.950656,11,EyesClosed
-18566.29771784517,-10714.778091285001,5851.194960021372,-2277.3968908067814,28120.014443399246,7887.863563044497,14500.224828746896,10747.590452145392,0.0,0.0,0.0,2019-03-17T21:24:57.951691,11,EyesClosed
-18688.159428615505,-10841.490130602138,5843.39420120647,-2150.3942788117265,28036.2177534363,8394.219981935023,14427.00051391131,10832.52708107556,0.03,1.018,0.218,2019-03-17T21:24:57.958466,11,EyesClosed
-18803.09209860469,-10963.910634983855,5703.964019294264,-2292.573725291935,27903.00135648267,8406.982828019003,14304.177678129397,10707.06673944792,0.0,0.0,0.0,2019-03-17T21:24:57.958941,11,EyesClosed
-18702.084565411158,-10854.498845875127,5685.724995818734,-2441.279881153093,27970.593031715518,7903.174507996382,14368.908330071967,10604.09225274232,0.0,0.0,0.0,2019-03-17T21:24:57.966360,11,EyesClosed
-18574.746677249273,-10719.851937276357,5826.228061464794,-2309.337533633415,28119.388594554497,7835.873405441453,14509.210230017929,10722.60120184436,0.0,0.0,0.0,2019-03-17T21:24:57.966819,11,EyesClosed
-18661.27028003577,-10816.85850821239,5853.564244933635,-2149.3884503112376,28070.952364319848,8332.328001538277,14467.568930097692,10838.562052078492,0.0,0.0,0.0,2019-03-17T21:24:57.973737,11,EyesClosed
-18803.829706171717,-10968.604501319469,5722.583022425535,-2256.1627335742396,27923.296740448088,8472.696956717606,14332.966724987833,10737.129835740308,0.0,0.0,0.0,2019-03-17T21:24:57.974355,11,EyesClosed
-18742.541222875265,-10898.956465596732,5668.134172932408,-2438.5753200740005,27947.883659348925,7988.2675991377355,14356.056077010166,10599.420738151162,0.0,0.0,0.0,2019-03-17T21:24:57.982771,11,EyesClosed
-18577.138313905994,-10723.919954767223,5812.593497347057,-2337.411324669281,28116.035832886202,7801.027035835628,14511.557163185736,10696.270846876008,0.0,0.0,0.0,2019-03-17T21:24:57.983475,11,EyesClosed
-18619.606628371075,-10773.026737335533,5882.420347025436,-2144.8286944423553,28114.650024729974,8259.327204147245,14515.803994632244,10846.698087060224,0.0,0.0,0.0,2019-03-17T21:24:57.990798,11,EyesClosed
-18785.00953734035,-10949.382001087904,5750.813275672588,-2217.1365877552735,27952.95750534028,8506.761015267493,14365.488513170305,10769.316347755952,0.0,0.0,0.0,2019-03-17T21:24:57.991597,11,EyesClosed
-18755.460531170433,-10908.9253436238,5672.179838678818,-2415.2848023515708,27943.882697091427,8085.430632284955,14355.229062465318,10616.76569184848,0.038,1.014,0.212,2019-03-17T21:24:57.997041,11,EyesClosed
-18592.225741413324,-10736.012248517543,5787.894819723942,-2379.3879007563473,28103.094172846577,7771.701547110266,14501.789450858767,10663.883169160268,0.0,0.0,0.0,2019-03-17T21:24:57.997883,11,EyesClosed
-18599.78063103922,-10757.045240049987,5878.218219067839,-2181.060872204408,28133.358434839065,8144.483941135877,14532.768968673823,10817.66317101278,0.0,0.0,0.0,2019-03-17T21:24:58.005315,11,EyesClosed
-18753.426522425,-10921.397617029861,5781.971607443286,-2187.1405466962515,27986.26160457869,8504.570544310875,14396.08805132962,10788.360034031874,0.0,0.0,0.0,2019-03-17T21:24:58.011382,11,EyesClosed
-18755.728752103896,-10917.910744894833,5682.305178917072,-2380.2149153011937,27947.458976204274,8183.152459043558,14358.157140988964,10637.463407214094,0.0,0.0,0.0,2019-03-17T21:24:58.012061,11,EyesClosed
-18603.2898549187,-10748.708039368157,5764.2913775791385,-2398.699807965733,28093.885254130993,7776.171896001327,14491.328834453683,10644.235985784053,0.0,0.0,0.0,2019-03-17T21:24:58.019031,11,EyesClosed
-18577.25007262827,-10725.909260023745,5879.268751057238,-2203.658485848723,28160.71697005236,8050.4501522124,14553.7349049729,10800.251162082097,0.0,0.0,0.0,2019-03-17T21:24:58.019982,11,EyesClosed
-18726.336208145167,-10888.004110813632,5813.487567125269,-2161.1231161502737,28030.540410344653,8492.679416260651,14436.500005304815,10816.076197156453,0.0,0.0,0.0,2019-03-17T21:24:58.027024,11,EyesClosed
-18777.722868647917,-10940.731875983702,5688.36250166446,-2360.634787158345,27943.994455813703,8269.050212985303,14355.474931654328,10653.48960798855,0.0,0.0,0.0,2019-03-17T21:24:58.027691,11,EyesClosed
-18632.07890177714,-10778.525266471537,5740.889101134432,-2434.8649304944197,28067.04080904017,7788.890038596397,14468.306537664717,10610.931886545646,0.0,0.0,0.0,2019-03-17T21:24:58.033646,11,EyesClosed
-18564.554281777655,-10708.139623181776,5874.172553321428,-2255.2239603071166,28164.71793230986,7946.246319561758,14561.558015532259,10757.55933017246,0.036000000000000004,1.022,0.212,2019-03-17T21:24:58.034585,11,EyesClosed
-18702.911579956006,-10862.321956434484,5839.3708872045145,-2161.7266132505674,28056.088454257067,8435.950688833082,14465.736087052357,10814.556278533493,0.0,0.0,0.0,2019-03-17T21:24:58.041718,11,EyesClosed
-18782.34967975017,-10948.085599909497,5709.663714130368,-2325.274327430049,27948.420101215852,8347.393077301154,14363.856835825067,10674.835523943368,0.0,0.0,0.0,2019-03-17T21:24:58.042663,11,EyesClosed
-18656.397599744512,-10808.342493574917,5729.221490528762,-2438.1506369293497,28047.035997752668,7847.071629413561,14454.7613805248,10604.0028457645,0.0,0.0,0.0,2019-03-17T21:24:58.049837,11,EyesClosed
-18546.404665279944,-10694.661521275226,5869.121059074529,-2278.179201862717,28180.610022617584,7885.136650220949,14579.104134929674,10745.668202122237,0.0,0.0,0.0,2019-03-17T21:24:58.050671,11,EyesClosed
-18655.45882647739,-10817.260839612585,5868.204637551861,-2142.99585139702,28106.51398974824,8396.701025569562,14512.339474241671,10844.99935448162,0.0,0.0,0.0,2019-03-17T21:24:58.056895,11,EyesClosed
-18774.504217446356,-10944.397562074371,5730.60729868499,-2282.02370190903,27972.515281738673,8433.223776009534,14382.65465291198,10724.054065233955,0.0,0.0,0.0,2019-03-17T21:24:58.057555,11,EyesClosed
-18676.178893587457,-10835.566918321481,5714.625801399446,-2432.920328726808,28035.234276680265,7929.61662168701,14437.95286869441,10621.526613417462,0.0,0.0,0.0,2019-03-17T21:24:58.065622,11,EyesClosed
-18543.34247628957,-10692.649864274248,5854.145390289473,-2310.5445278340017,28181.72760984035,7832.118312372961,14574.253806382872,10737.040428762488,0.0,0.0,0.0,2019-03-17T21:24:58.071387,11,EyesClosed
-18623.384073184025,-10777.117106570853,5895.473765787336,-2138.190226339129,28141.762690754258,8321.845033388738,14541.7320182004,10863.48424714616,0.0,0.0,0.0,2019-03-17T21:24:58.072188,11,EyesClosed
-18773.207816267946,-10933.06522763553,5765.6995374798225,-2235.44266646417,27990.508436025197,8481.280026588443,14400.737214176324,10770.433934978717,0.034,1.024,0.216,2019-03-17T21:24:58.078698,11,EyesClosed
-18705.772603246285,-10856.711668576201,5711.563612409069,-2413.0943313949506,28019.319834628088,8015.961410517862,14421.524336519758,10641.844349127336,0.0,0.0,0.0,2019-03-17T21:24:58.079610,11,EyesClosed
-18550.49503451527,-10694.773279997502,5834.967593546819,-2337.7018973472,28173.27865043624,7792.756890387165,14560.59689052068,10721.058931476944,0.0,0.0,0.0,2019-03-17T21:24:58.086590,11,EyesClosed
-18595.198523425883,-10746.137588755797,5897.708940232867,-2152.8753224462657,28167.28838292222,8225.374904319633,14557.44529455248,10865.495904147137,0.0,0.0,0.0,2019-03-17T21:24:58.087268,11,EyesClosed
-18750.118464245614,-10913.283933792583,5786.061976678608,-2201.5574218699244,28020.951511973326,8506.537497822941,14419.512679518783,10812.276400599052,0.0,0.0,0.0,2019-03-17T21:24:58.094519,11,EyesClosed
-18730.784205291773,-10887.467668946705,5701.84060357101,-2403.818357445998,28004.031241420656,8098.84167895814,14400.80426940969,10658.58580572436,0.0,0.0,0.0,2019-03-17T21:24:58.095187,11,EyesClosed
-18569.5834242801,-10712.83348951739,5809.128976956485,-2378.694996678233,28157.408911872975,7760.190398715783,14540.055637366253,10696.203791642642,0.0,0.0,0.0,2019-03-17T21:24:58.101279,11,EyesClosed
-18560.374505564512,-10704.652751046748,5908.92951594943,-2175.674101790679,28195.25041523581,8119.0476559457375,14575.594911050192,10854.700011575223,0.0,0.0,0.0,2019-03-17T21:24:58.102147,11,EyesClosed
-18717.440213851954,-10872.492000161648,5818.0026195052415,-2177.4175378581926,28046.87953554148,8492.455898816097,14440.411560584495,10836.058656699499,0.0,0.0,0.0,2019-03-17T21:24:58.109130,11,EyesClosed
-18724.525716844288,-10884.852514845434,5720.101978790996,-2368.4802494621576,28001.68430825285,8191.802584147762,14396.222161796351,10687.106631649332,0.0,0.0,0.0,2019-03-17T21:24:58.109830,11,EyesClosed
-18569.20344462436,-10724.568155356426,5796.902572739431,-2398.14101435435,28141.919152965445,7765.644224362877,14524.320009269717,10683.932683936679,0.032,1.018,0.218,2019-03-17T21:24:58.116967,11,EyesClosed
-18536.27932504169,-10686.659596760226,5916.149129408494,-2197.824680545888,28218.809153891703,8028.076056012637,14600.092422973208,10851.280194673562,0.0,0.0,0.0,2019-03-17T21:24:58.117294,11,EyesClosed
-18698.41887932049,-10853.984755752654,5847.842198353076,-2145.5886537538354,28086.620937183015,8483.761070222983,14477.62721510258,10877.454087430726,0.0,0.0,0.0,2019-03-17T21:24:58.123082,11,EyesClosed
-18754.94644104796,-10912.769843670112,5714.871670588454,-2340.3170514484705,27996.610462261495,8284.271750959368,14387.773202392245,10719.471957620617,0.0,0.0,0.0,2019-03-17T21:24:58.130987,11,EyesClosed
-18602.06050897366,-10749.55740565746,5763.8219909455765,-2420.0680756650063,28123.74718472328,7805.966771360251,14502.68352063698,10681.518695535506,0.0,0.0,0.0,2019-03-17T21:24:58.131388,11,EyesClosed
-18526.511612714723,-10668.688794218158,5893.707977975367,-2244.53982645748,28227.861610396103,7941.172473570404,14602.12643171864,10834.33757237644,0.0,0.0,0.0,2019-03-17T21:24:58.138773,11,EyesClosed
-18663.97484111486,-10820.814766980979,5860.023899081219,-2145.1639706091846,28122.607245756062,8436.53183418892,14506.796241616756,10900.141108052863,0.0,0.0,0.0,2019-03-17T21:24:58.139552,11,EyesClosed
-18754.409999181033,-10928.997210144666,5723.700609648301,-2313.0032197240853,28005.081773410056,8367.330833355289,14396.020996096255,10758.408696461762,0.0,0.0,0.0,2019-03-17T21:24:58.146741,11,EyesClosed
-18622.4452999169,-10777.698251926691,5745.828836659055,-2425.0301629340843,28108.07861186011,7871.2785686586585,14490.814744331212,10690.727614251091,0.0,0.0,0.0,2019-03-17T21:24:58.147429,11,EyesClosed
-18523.315313257615,-10665.358384294317,5881.503925502769,-2273.664149482745,28235.908238400014,7878.945217006829,14610.351873678193,10824.882784471845,0.0,0.0,0.0,2019-03-17T21:24:58.153480,11,EyesClosed
-18636.63865764602,-10782.07919383993,5881.414518524947,-2134.837464670833,28156.693656050404,8378.506705582942,14541.128521100107,10920.54825074056,0.03,1.014,0.218,2019-03-17T21:24:58.154293,11,EyesClosed
-18746.60924036613,-10914.78150067109,5755.261272819194,-2253.368765517326,28027.58998007655,8448.601776194784,14420.920839419467,10812.566973276971,0.0,0.0,0.0,2019-03-17T21:24:58.161611,11,EyesClosed
-18652.17312004246,-10817.350246590406,5731.121388807463,-2410.456825549224,28084.31870750412,7950.537854497177,14471.05580223272,10703.736329524081,0.0,0.0,0.0,2019-03-17T21:24:58.162273,11,EyesClosed
-18513.838173608565,-10667.01241338401,5869.746907919277,-2297.0664259274517,28236.15410758902,7826.820948937053,14609.636617855624,10811.114109887376,0.0,0.0,0.0,2019-03-17T21:24:58.169599,11,EyesClosed
-18590.415250112444,-10745.847016077878,5912.572850295645,-2123.9745168655536,28206.44863920792,8310.333884994256,14583.88740824311,10942.654126006857,0.0,0.0,0.0,2019-03-17T21:24:58.170246,11,EyesClosed
-18741.915374030516,-10905.282009277584,5776.897761451932,-2218.947079056153,28053.87563155599,8492.567657538373,14439.293973361728,10853.470665630182,0.0,0.0,0.0,2019-03-17T21:24:58.176575,11,EyesClosed
-18688.137076871048,-10851.034325484554,5707.696760618301,-2414.681305251277,28068.89600382996,8028.321925201646,14448.569947310682,10709.257210404541,0.0,0.0,0.0,2019-03-17T21:24:58.177654,11,EyesClosed
-18532.05484533964,-10685.318492092907,5828.396180676959,-2350.2188742421718,28228.375700518573,7782.273922237626,14594.415079881559,10778.838190893912,0.0,0.0,0.0,2019-03-17T21:24:58.183273,11,EyesClosed
-18575.059601671648,-10731.497196137572,5896.144318120995,-2166.0404999304415,28232.510773242808,8199.938619129494,14598.483097372426,10920.570602485013,0.0,0.0,0.0,2019-03-17T21:24:58.191033,11,EyesClosed
-18729.018417479805,-10896.900105106844,5788.855944735521,-2203.5243753819914,28088.40907673944,8502.134204165246,14464.663203318501,10873.229607728674,0.0,0.0,0.0,2019-03-17T21:24:58.191933,11,EyesClosed
-18711.248780637834,-10880.739793865658,5704.343998950005,-2402.879584178875,28070.907660830937,8114.756121010319,14448.301726377216,10724.679914078702,0.032,1.014,0.216,2019-03-17T21:24:58.199170,11,EyesClosed
-18555.524177017713,-10715.02396047401,5804.993904232252,-2392.3519125404255,28222.050156837722,7759.430439404302,14586.815486766754,10756.866426094346,0.0,0.0,0.0,2019-03-17T21:24:58.200075,11,EyesClosed
-18547.723418202808,-10708.877230748802,5906.649638014989,-2192.9743519990866,28269.279392871787,8099.288713847246,14632.882432089144,10915.384997771383,0.0,0.0,0.0,2019-03-17T21:24:58.206020,11,EyesClosed
-18706.64432128004,-10878.348157208939,5816.996791004753,-2183.787785027955,28125.289455090697,8489.527820292453,14500.180125257984,10901.146936553352,0.0,0.0,0.0,2019-03-17T21:24:58.206656,11,EyesClosed
-18740.730731574386,-10909.81941340201,5698.599600624991,-2385.4228717592805,28060.134120003477,8198.530459228808,14436.634115771547,10739.141492741286,0.0,0.0,0.0,2019-03-17T21:24:58.213596,11,EyesClosed
-18575.797209238674,-10736.682800851202,5776.495430051736,-2414.7707122290985,28206.38158397455,7768.952282542263,14568.710573757957,10737.621574118326,0.0,0.0,0.0,2019-03-17T21:24:58.214354,11,EyesClosed
-18528.47856622679,-10683.128021136286,5896.233725098816,-2220.4222941902035,28284.0762477012,7995.576619574621,14643.074827560762,10892.407404471327,0.0,0.0,0.0,2019-03-17T21:24:58.221738,11,EyesClosed
-18682.862065179597,-10852.53189236306,5835.504035413746,-2158.2397411155393,28157.27480140624,8456.201369309589,14528.097454082663,10920.9282303963,0.0,0.0,0.0,2019-03-17T21:24:58.222449,11,EyesClosed
-18753.80650208074,-10927.812567688534,5708.166147251863,-2340.719382848666,28063.777454349693,8284.338806192733,14438.981048939355,10769.204589033674,0.0,0.0,0.0,2019-03-17T21:24:58.229824,11,EyesClosed
-18612.275256189736,-10768.556388444471,5752.7578774402,-2424.0913896669617,28184.20865347489,7800.803518391075,14544.97302114642,10720.74600705457,0.0,0.0,0.0,2019-03-17T21:24:58.230469,11,EyesClosed
-18521.996560334752,-10676.243683844052,5896.211373354361,-2245.5233032135134,28302.583492110192,7918.5301564371775,14655.010659099897,10871.8661513169,0.034,1.012,0.218,2019-03-17T21:24:58.236406,11,EyesClosed
-18652.620154931567,-10818.177261135252,5875.245437055282,-2136.0221071269643,28204.749906629313,8420.885613070204,14570.096381914185,10944.509320796647,0.0,0.0,0.0,2019-03-17T21:24:58.237097,11,EyesClosed
-18754.52175790331,-10925.286820565083,5729.065028317575,-2300.5756498069345,28076.786169622683,8375.779792759395,14450.469845589381,10803.782737706035,0.0,0.0,0.0,2019-03-17T21:24:58.243437,11,EyesClosed
-18623.853459817587,-10786.303673541985,5737.782208655144,-2425.633660034378,28170.261164934775,7874.944254749329,14533.372465774115,10720.589544843382,0.0,0.0,0.0,2019-03-17T21:24:58.244098,11,EyesClosed
-18505.65743513792,-10665.894826161246,5880.431041768914,-2276.569876261935,28309.84780905817,7860.370917364468,14664.66661270459,10852.509540618605,0.0,0.0,0.0,2019-03-17T21:24:58.251395,11,EyesClosed
-18610.755337566774,-10772.736164657614,5888.6117802395565,-2132.937566392132,28240.222125079887,8357.741934983962,14605.948580020498,10952.421838333827,0.0,0.0,0.0,2019-03-17T21:24:58.258459,11,EyesClosed
-18737.51208037282,-10911.451090747249,5756.244749575228,-2253.63698645079,28098.623823955517,8442.902081358681,14476.8672557911,10842.42890386926,0.0,0.0,0.0,2019-03-17T21:24:58.259347,11,EyesClosed
-18647.345143240113,-10817.171432634763,5730.18261554034,-2415.9330029407743,28152.022141459245,7951.208406830837,14526.331666270695,10728.8820420363,0.0,0.0,0.0,2019-03-17T21:24:58.266012,11,EyesClosed
-18494.66037686591,-10657.401163268229,5873.613759710045,-2308.1975946661946,28311.859466059148,7806.436157993813,14675.350746554226,10830.984810708143,0.0,0.0,0.0,2019-03-17T21:24:58.266658,11,EyesClosed
-18562.855549199052,-10735.02877176151,5917.579641053634,-2140.9394909071316,28281.349334877654,8274.079355487747,14648.305135763305,10957.138056413896,0.0,0.0,0.0,2019-03-17T21:24:58.273994,11,EyesClosed
-18709.214771892402,-10893.077956804986,5786.821935990088,-2224.9820500590863,28131.592647027093,8479.357776565288,14508.494974195359,10873.922511806788,0.036000000000000004,1.014,0.214,2019-03-17T21:24:58.274659,11,EyesClosed
-18662.231405047347,-10836.840967755434,5715.966906066765,-2416.0224099185957,28144.690769277906,8027.964297290361,14515.759291143333,10731.74306532658,0.0,0.0,0.0,2019-03-17T21:24:58.282086,11,EyesClosed
-18498.23665597876,-10655.05423010042,5844.601195407056,-2351.1576475092947,28312.686480603992,7769.041689520084,14668.600519728723,10803.55922026148,0.0,0.0,0.0,2019-03-17T21:24:58.282786,11,EyesClosed
-18528.47856622679,-10701.344692867362,5918.384303854025,-2160.296101605428,28321.89539931958,8176.446935706966,14680.581054756769,10950.700754010768,0.0,0.0,0.0,2019-03-17T21:24:58.288587,11,EyesClosed
-18686.88537918155,-10867.507561148115,5807.698465311345,-2190.8509362758323,28172.8986707805,8500.72604426456,14543.564861245735,10910.177041313296,0.0,0.0,0.0,2019-03-17T21:24:58.289276,11,EyesClosed
-18682.347975057124,-10855.370563908884,5712.41297869837,-2389.4461857612355,28145.920115222947,8133.4868828638655,14517.435671977482,10756.575853416427,0.0,0.0,0.0,2019-03-17T21:24:58.298134,11,EyesClosed
-18517.99559807725,-10682.323358335896,5816.169776459906,-2379.142031567339,28305.109239233643,7768.952282542263,14662.8114179148,10785.163734574764,0.0,0.0,0.0,2019-03-17T21:24:58.298793,11,EyesClosed
-18510.127784028984,-10677.763602467014,5917.825510242643,-2191.476785120581,28350.192707799997,8083.038995628238,14706.799651002842,10934.451035791759,0.0,0.0,0.0,2019-03-17T21:24:58.306011,11,EyesClosed
-18662.83490214764,-10845.781665537557,5839.907329071442,-2174.243590145539,28214.40586023401,8495.741605251027,14581.160495419563,10932.662896235335,0.0,0.0,0.0,2019-03-17T21:24:58.306780,11,EyesClosed
-18695.490800796844,-10880.851552587934,5724.4382172153255,-2371.8106593859984,28153.18443217092,8238.24950912589,14523.291829024773,10779.75461241658,0.0,0.0,0.0,2019-03-17T21:24:58.312485,11,EyesClosed
-18537.62042970901,-10711.06770170542,5797.371959372993,-2416.3576860854255,28296.146189707066,7797.361349744958,14653.557795710301,10767.170580288242,0.028,1.02,0.20800000000000002,2019-03-17T21:24:58.318562,11,EyesClosed
-18492.179333231372,-10666.766544195003,5918.876042232042,-2231.888739095776,28378.534719769326,8002.2374394223025,14731.744197814965,10917.083730349987,0.0,0.0,0.0,2019-03-17T21:24:58.319269,11,EyesClosed
-18640.68432339243,-10822.893479215321,5866.6847189289,-2158.865589960288,28258.55055553324,8478.754279464994,14623.986437795931,10958.926195970322,0.0,0.0,0.0,2019-03-17T21:24:58.326192,11,EyesClosed
-18710.712338770907,-10892.943846338254,5740.5761767120575,-2330.661097843778,28164.49441486531,8339.771132441894,14534.244183807872,10814.846851211412,0.0,0.0,0.0,2019-03-17T21:24:58.326661,11,EyesClosed
-18567.862339957042,-10738.359181685351,5779.33410159756,-2418.7046192532325,28280.902299988546,7850.446742826312,14640.258507759394,10763.236673264108,0.0,0.0,0.0,2019-03-17T21:24:58.334306,11,EyesClosed
-18472.330984155058,-10642.492549716539,5915.120949163551,-2246.0373933359856,28396.013783933377,7936.746828168253,14749.960869546041,10907.405425000838,0.0,0.0,0.0,2019-03-17T21:24:58.335130,11,EyesClosed
-18609.101308477082,-10791.623388722348,5884.610817982057,-2138.9501856506095,28289.88770125958,8428.798130607383,14657.737571923444,10974.59476883349,0.0,0.0,0.0,2019-03-17T21:24:58.341575,11,EyesClosed
-18721.821155765196,-10910.892297135866,5739.615051700479,-2296.753501505077,28160.80637703018,8406.04405475188,14539.16156758804,10838.494996845127,0.0,0.0,0.0,2019-03-17T21:24:58.342378,11,EyesClosed
-18603.558075852165,-10784.537885730015,5739.883272633943,-2433.7696950161094,28246.30179957173,7902.883935318463,14617.593838881712,10752.641946392292,0.0,0.0,0.0,2019-03-17T21:24:58.349031,11,EyesClosed
-18480.735240070255,-10652.10379983232,5878.329977790115,-2299.212193395161,28386.29077509532,7862.159056920894,14749.759703845944,10878.884599075867,0.0,0.0,0.0,2019-03-17T21:24:58.349954,11,EyesClosed
-18578.47941857331,-10751.993745803089,5898.982989666819,-2145.611005498291,28332.020739557833,8364.156885642635,14702.418709089603,10993.057309753574,0.028,1.02,0.21,2019-03-17T21:24:58.357069,11,EyesClosed
-18722.067024954205,-10911.607552958436,5756.3118048085935,-2271.0936988703847,28182.733438340838,8466.751392692495,14560.351021331671,10879.979834554177,0.0,0.0,0.0,2019-03-17T21:24:58.357749,11,EyesClosed
-18646.428721717446,-10828.593174051426,5718.22443225675,-2445.4149538773245,28225.380566761563,7976.354119343057,14596.560847349268,10756.307632482962,0.0,0.0,0.0,2019-03-17T21:24:58.365180,11,EyesClosed
-18496.828496078077,-10670.29811981894,5857.073468813118,-2346.6872986182334,28388.57065302976,7807.464338238757,14746.183424733093,10852.062505729498,0.0,0.0,0.0,2019-03-17T21:24:58.366155,11,EyesClosed
-18551.076179871106,-10728.993800758577,5917.803158498187,-2161.301930105916,28377.81946394676,8274.593445610219,14738.494424640468,10991.60444636398,0.0,0.0,0.0,2019-03-17T21:24:58.371289,11,EyesClosed
-18699.26824560979,-10890.619264914903,5797.684883795368,-2228.357163471838,28230.25324705282,8511.566640325385,14600.382995651127,10921.576430985502,0.0,0.0,0.0,2019-03-17T21:24:58.378395,11,EyesClosed
-18662.209053302893,-10849.581462094959,5722.113635791974,-2427.310040868526,28228.688624940947,8074.813553668685,14596.27027467135,10772.691461168703,0.0,0.0,0.0,2019-03-17T21:24:58.379166,11,EyesClosed
-18505.344510715546,-10684.133849636775,5836.912195314431,-2387.278066549071,28385.888443695123,7779.815230347542,14741.936593286586,10826.536813561537,0.0,0.0,0.0,2019-03-17T21:24:58.386680,11,EyesClosed
-18522.197726034847,-10706.59735281436,5929.113141192573,-2186.1570699402178,28416.91266499909,8182.236037520891,14774.525436702424,10987.067042239552,0.0,0.0,0.0,2019-03-17T21:24:58.387660,11,EyesClosed
-18693.233274606857,-10884.494886934148,5819.321372428104,-2213.314439453416,28263.423235824495,8520.484986363052,14633.32946697825,10946.588033030992,0.0,0.0,0.0,2019-03-17T21:24:58.394585,11,EyesClosed
-18690.79693446123,-10877.409383941816,5718.425597956848,-2416.044761663051,28229.82856390817,8172.445973449466,14595.309149659772,10791.37751953334,0.032,1.02,0.21,2019-03-17T21:24:58.395552,11,EyesClosed
-18521.66128416792,-10706.038559202976,5815.543927615157,-2418.503453553135,28383.452103549494,7792.846297364986,14735.34282867227,10812.388159321328,0.0,0.0,0.0,2019-03-17T21:24:58.401226,11,EyesClosed
-18497.342586200546,-10685.899637448745,5929.068437703662,-2217.8741953222984,28444.24884846793,8096.874725446073,14793.54677123389,10969.587978075502,0.0,0.0,0.0,2019-03-17T21:24:58.401936,11,EyesClosed
-18658.476311978855,-10852.107209218408,5852.156085032951,-2185.1288896952738,28307.54557937927,8521.155538696712,14669.695755207034,10974.371251388939,0.0,0.0,0.0,2019-03-17T21:24:58.409757,11,EyesClosed
-18711.338187615656,-10909.685302935279,5726.6063364274905,-2385.8699066483864,28228.44275575194,8270.54777986381,14595.666777571056,10809.99652266461,0.0,0.0,0.0,2019-03-17T21:24:58.410740,11,EyesClosed
-18553.53487176119,-10743.74595209908,5796.276723894683,-2439.2235206632045,28366.50948125237,7817.388512776914,14723.25053492195,10791.37751953334,0.0,0.0,0.0,2019-03-17T21:24:58.417499,11,EyesClosed
-18490.502952397223,-10678.121230378298,5930.566004582168,-2249.5913207043795,28465.058322555822,8007.758320302763,14815.540887777912,10949.247890621173,0.0,0.0,0.0,2019-03-17T21:24:58.418227,11,EyesClosed
-18639.20910825838,-10841.735999791146,5878.911123145953,-2174.958845968109,28342.861335618658,8482.643483000218,14704.050386434841,10988.855181795978,0.0,0.0,0.0,2019-03-17T21:24:58.423952,11,EyesClosed
-18708.61127479211,-10915.675570449303,5746.052354103608,-2344.697993361711,28239.708034957413,8365.676804265595,14604.94275152001,10844.351153892418,0.0,0.0,0.0,2019-03-17T21:24:58.424602,11,EyesClosed
-18565.515406789233,-10755.36885921584,5780.3175783535935,-2437.167160173316,28357.501728236883,7880.398080396424,14711.895848738654,10793.635045723326,0.0,0.0,0.0,2019-03-17T21:24:58.430951,11,EyesClosed
-18466.720696296776,-10651.388544009751,5916.909088719975,-2274.379405305315,28480.324564018796,7938.579671213588,14826.850870472297,10937.915556182332,0.03,1.012,0.20800000000000002,2019-03-17T21:24:58.440115,11,EyesClosed
-18597.612511827054,-10789.70113869919,5900.100576889584,-2155.803400969911,28387.564824529272,8441.270404013445,14745.53522414389,11021.37696997845,0.0,0.0,0.0,2019-03-17T21:24:58.440873,11,EyesClosed
-18709.70651027042,-10901.146936553352,5766.705365980311,-2299.1898416507056,28259.109349144623,8452.62509019674,14625.41694944107,10895.827221372989,0.0,0.0,0.0,2019-03-17T21:24:58.446865,11,EyesClosed
-18601.38995664,-10786.817763664456,5761.832685689054,-2440.564625330523,28336.736957637902,7952.705973709342,14697.926008454086,10803.693330728214,0.0,0.0,0.0,2019-03-17T21:24:58.447731,11,EyesClosed
-18474.83437953405,-10660.217483069597,5901.3522745790815,-2312.310315645971,28480.078694829786,7879.995748996228,14832.97524845305,10921.26350656313,0.0,0.0,0.0,2019-03-17T21:24:58.453244,11,EyesClosed
-18569.069334157626,-10761.962623830155,5920.418312599459,-2158.1503341377183,28425.182810447553,8363.709850753528,14784.315500773848,11031.748179405711,0.0,0.0,0.0,2019-03-17T21:24:58.453908,11,EyesClosed
-18707.583094547164,-10902.420985987304,5784.944389455842,-2264.6116929783457,28282.93630873398,8497.552096551908,14649.780350897356,10933.087579379986,0.0,0.0,0.0,2019-03-17T21:24:58.461453,11,EyesClosed
-18624.68047436243,-10813.304580843995,5744.37597326946,-2434.082619438484,28326.566913910738,8026.690247856409,14688.895903694143,10817.417301823773,0.0,0.0,0.0,2019-03-17T21:24:58.462375,11,EyesClosed
-18481.629309848468,-10669.828733185379,5866.327091017615,-2354.689223133233,28475.965973850012,7821.612992478967,14826.60500128329,10899.381148741382,0.0,0.0,0.0,2019-03-17T21:24:58.469658,11,EyesClosed
-18534.91586862992,-10729.150262969764,5922.295859133704,-2173.4836308340587,28463.15842427712,8270.905407775093,14817.016102911963,11036.710266674789,0.0,0.0,0.0,2019-03-17T21:24:58.470358,11,EyesClosed
-18684.87372218057,-10882.080898532975,5803.429282120381,-2233.2968989964606,28314.429916671506,8528.0622277334,14675.864836676697,10970.45969610926,0.038,1.012,0.21,2019-03-17T21:24:58.476805,11,EyesClosed
-18659.124512568058,-10854.565901108492,5730.853167873999,-2427.645317035355,28314.02758527131,8107.335341851157,14668.175836584072,10821.127691403353,0.0,0.0,0.0,2019-03-17T21:24:58.477543,11,EyesClosed
-18498.84015307905,-10685.318492092907,5851.641994910478,-2387.0545491045177,28478.692886673558,7799.3730067459355,14817.26197210097,10871.240302472152,0.0,0.0,0.0,2019-03-17T21:24:58.484242,11,EyesClosed
-18512.27355149669,-10696.740233509568,5942.278318676748,-2192.8178897878993,28507.370174809716,8178.927979341505,14845.045190458917,11022.427501967848,0.0,0.0,0.0,2019-03-17T21:24:58.485108,11,EyesClosed
-18671.21680631838,-10861.62905235637,5842.209558750339,-2205.9830672720755,28358.351094526184,8535.080675492367,14705.682063780077,10993.772565576144,0.0,0.0,0.0,2019-03-17T21:24:58.491238,11,EyesClosed
-18676.156541843004,-10866.14410473634,5746.700554692812,-2397.917496909797,28323.482373175906,8212.321485557733,14670.701583707523,10845.71461030419,0.0,0.0,0.0,2019-03-17T21:24:58.491884,11,EyesClosed
-18513.05586255263,-10695.399128842251,5837.850968581554,-2407.461691792213,28478.223500039996,7816.1591668318715,14811.137594120217,10861.360831422906,0.0,0.0,0.0,2019-03-17T21:24:58.499400,11,EyesClosed
-18484.445629649836,-10668.308814562419,5946.122818723062,-2211.9062795527316,28539.757852525458,8095.041882400737,14870.146199482228,11019.544126933113,0.0,0.0,0.0,2019-03-17T21:24:58.506273,11,EyesClosed
-18639.723198380852,-10824.86043272739,5876.2289138113165,-2163.9841394405535,28407.726098027957,8540.02041101699,14751.59254689128,11042.409961510893,0.0,0.0,0.0,2019-03-17T21:24:58.506996,11,EyesClosed
-18684.538446013743,-10876.269444974596,5757.049412375619,-2350.0400602865293,28330.165544768042,8323.253193289424,14680.871627434688,10893.256770760629,0.0,0.0,0.0,2019-03-17T21:24:58.513687,11,EyesClosed
-18540.123825088005,-10720.589544843382,5809.173680445395,-2421.722104754699,28455.380017206673,7846.378725335447,14796.363091035259,10859.05860174401,0.036000000000000004,1.012,0.212,2019-03-17T21:24:58.514711,11,EyesClosed
-18477.09190572404,-10655.233044056064,5930.431894115436,-2246.9985183475637,28547.64801831818,7996.113061441549,14882.618472888289,11002.690911613812,0.0,0.0,0.0,2019-03-17T21:24:58.521638,11,EyesClosed
-18607.134354965016,-10804.386234806329,5898.133623377517,-2153.747040480023,28443.846517067734,8492.142974393722,14789.791678165398,11066.303976333616,0.0,0.0,0.0,2019-03-17T21:24:58.522546,11,EyesClosed
-18701.95045494443,-10899.470555719205,5758.770496698678,-2333.499769389602,28329.003254056366,8392.633008078696,14681.38571755716,10920.369436784917,0.0,0.0,0.0,2019-03-17T21:24:58.529707,11,EyesClosed
-18572.891482459483,-10758.878083095322,5776.271912607183,-2454.4674103817238,28427.842668037734,7884.399042653924,14769.831570366809,10847.949784749722,0.0,0.0,0.0,2019-03-17T21:24:58.530410,11,EyesClosed
-18459.098751437516,-10640.637354926748,5924.486330090324,-2289.958571190664,28563.942440026098,7925.034514073672,14894.107269538317,10990.106879485475,0.0,0.0,0.0,2019-03-17T21:24:58.536455,11,EyesClosed
-18570.81277022514,-10760.59916741838,5927.235594658327,-2154.0376131579415,28490.561662979326,8436.084799299813,14828.214326884072,11085.325310865082,0.0,0.0,0.0,2019-03-17T21:24:58.537242,11,EyesClosed
-18685.343108814133,-10875.844761829945,5794.667398293901,-2286.5611060334572,28363.156719584076,8477.614340497774,14709.7724330154,10969.632681564413,0.0,0.0,0.0,2019-03-17T21:24:58.545039,11,EyesClosed
-18587.263654144248,-10775.932464114721,5779.043528919641,-2438.396506118358,28430.077842483264,7973.1801716304035,14770.412715722647,10865.63001461387,0.0,0.0,0.0,2019-03-17T21:24:58.545696,11,EyesClosed
-18458.98699271524,-10644.884186373256,5914.182175896428,-2319.55228084949,28573.08430350832,7869.781001780153,14902.489173709057,10972.113725198953,0.0,0.0,0.0,2019-03-17T21:24:58.552395,11,EyesClosed
-18544.124787345503,-10730.625478103815,5947.687440834933,-2150.483685789548,28527.97848319751,8359.530074540386,14861.853702289309,11093.684863291368,0.028,1.014,0.20800000000000002,2019-03-17T21:24:58.553296,11,EyesClosed
-18692.3615565731,-10886.663006146313,5815.320410170604,-2248.496085226069,28378.42296104705,8523.100140464323,14718.780186030888,10998.421728422849,0.0,0.0,0.0,2019-03-17T21:24:58.558493,11,EyesClosed
-18626.35685519658,-10819.51836580257,5767.062993891596,-2428.2264623911933,28411.28002539635,8056.619233682065,14743.791788076376,10867.239340214652,0.0,0.0,0.0,2019-03-17T21:24:58.566034,11,EyesClosed
-18476.242539434737,-10661.424477270184,5895.2502483427825,-2350.442391686725,28568.636306361714,7833.191196106815,14886.462972934602,10945.090466152486,0.0,0.0,0.0,2019-03-17T21:24:58.566787,11,EyesClosed
-18512.966455574806,-10700.897657978256,5972.3190632246815,-2150.573092767369,28573.866614564256,8280.851934057706,14895.493077694546,11096.881162748476,0.0,0.0,0.0,2019-03-17T21:24:58.573811,11,EyesClosed
-18667.59582371662,-10863.551302379527,5858.906311858454,-2198.8975642797427,28426.412156392595,8562.50626593903,14757.627517894212,11042.18644406634,0.0,0.0,0.0,2019-03-17T21:24:58.574653,11,EyesClosed
-18642.18189027094,-10835.030476454554,5777.881238207965,-2393.8941829078417,28417.91849349958,8162.633557633586,14746.6304596222,10894.77668938359,0.0,0.0,0.0,2019-03-17T21:24:58.582029,11,EyesClosed
-18486.658452350912,-10665.53719824996,5881.25805631376,-2372.4365082307468,28569.955059284577,7829.659620482877,14884.719536867087,10933.69107648028,0.0,0.0,0.0,2019-03-17T21:24:58.582673,11,EyesClosed
-18490.65941460841,-10667.191227339654,5972.140249269039,-2176.6799302911677,28603.616786434268,8186.952255600961,14919.208278561626,11086.152325409928,0.0,0.0,0.0,2019-03-17T21:24:58.588536,11,EyesClosed
-18640.013771058773,-10828.213194395685,5882.755623192265,-2167.6498255312235,28464.29836324434,8573.592731188863,14797.435974769114,11076.652834016424,0.0,0.0,0.0,2019-03-17T21:24:58.589198,11,EyesClosed
-18658.565718956677,-10850.922566762278,5776.830706218566,-2360.7688976250765,28416.42092662107,8273.677024087552,14753.738314358989,10930.58418400099,0.0,0.0,0.0,2019-03-17T21:24:58.596733,11,EyesClosed
-18502.304673469625,-10682.59157926936,5858.6827944139,-2383.8582496474087,28563.495405136993,7863.276644143659,14887.401746201724,10939.904861438854,0.028,1.026,0.20800000000000002,2019-03-17T21:24:58.597377,11,EyesClosed
-18469.492312609233,-10647.231119541064,5975.895342337531,-2188.6828170636677,28639.156060118206,8124.166205426002,14959.731991259097,11101.284456406172,0.0,0.0,0.0,2019-03-17T21:24:58.604684,11,EyesClosed
-18636.25867799028,-10818.847813468912,5908.7507019937875,-2137.8773019167547,28510.700584733557,8574.598559689352,14840.731303779043,11121.401026415948,0.0,0.0,0.0,2019-03-17T21:24:58.605326,11,EyesClosed
-18697.122478142082,-10881.432697943772,5786.017273189696,-2321.1616064502728,28428.58027560476,8376.56210381533,14758.25336673896,10966.615196062947,0.0,0.0,0.0,2019-03-17T21:24:58.611865,11,EyesClosed
-18546.114092602027,-10727.451530391161,5835.660497624934,-2401.292610322548,28550.330227652816,7891.708063090809,14866.100533735816,10921.151747840851,0.0,0.0,0.0,2019-03-17T21:24:58.612563,11,EyesClosed
-18473.00153648872,-10648.236948041553,5968.183990500449,-2225.8761198372986,28654.511708559003,8024.678590855431,14959.799046492464,11064.627595499469,0.0,0.0,0.0,2019-03-17T21:24:58.618459,11,EyesClosed
-18623.607590628577,-10805.079138884443,5930.856577260087,-2133.0046216254977,28549.123233452232,8515.098215949323,14860.110266221795,11120.52930838219,0.0,0.0,0.0,2019-03-17T21:24:58.626323,11,EyesClosed
-18718.490745841355,-10902.085709820474,5800.076520452085,-2298.340475361404,28441.030197266366,8446.701877916084,14753.514796914435,10980.98736774771,0.0,0.0,0.0,2019-03-17T21:24:58.627184,11,EyesClosed
-18577.786514495197,-10754.765362115546,5817.734398571778,-2418.0564186640286,28546.50807935096,7950.8731306640075,14848.733228294042,10907.830108145488,0.0,0.0,0.0,2019-03-17T21:24:58.634257,11,EyesClosed
-18465.37959162946,-10636.39052348024,5951.777810070254,-2274.4241087942255,28679.322144904396,7963.926549425906,14972.025450709518,11035.65973468539,0.0,0.0,0.0,2019-03-17T21:24:58.634955,11,EyesClosed
-18576.15483714996,-10755.03358304901,5957.633967117545,-2134.859816415288,28613.786830161433,8476.429698041642,14912.323941269391,11138.164834757428,0.024,1.02,0.21,2019-03-17T21:24:58.641486,11,EyesClosed
-18706.979597446873,-10891.692148648757,5814.985134003775,-2275.318178572438,28473.954316849035,8532.152596968723,14778.21347453755,11015.073778042053,0.0,0.0,0.0,2019-03-17T21:24:58.642321,11,EyesClosed
-18613.102270734584,-10786.057804352977,5791.806375003622,-2437.9941747181624,28533.8346402448,8033.574585148644,14830.74007400752,10900.49873596415,0.0,0.0,0.0,2019-03-17T21:24:58.648866,11,EyesClosed
-18477.65069933542,-10647.275823029975,5928.777865025743,-2326.503673375091,28688.709877575624,7921.257069260725,14971.958395476151,11005.060196526074,0.0,0.0,0.0,2019-03-17T21:24:58.649571,11,EyesClosed
-18546.114092602027,-10722.847071033368,5975.157734770505,-2150.0813543893523,28658.57972604987,8408.99448501998,14947.90791844224,11134.186224244384,0.0,0.0,0.0,2019-03-17T21:24:58.656908,11,EyesClosed
-18684.337280313644,-10871.262654216607,5854.5700734341235,-2230.1676547727175,28515.863837702735,8604.818118192927,14814.78092846643,11055.821008184077,0.0,0.0,0.0,2019-03-17T21:24:58.657583,11,EyesClosed
-18632.72710236634,-10805.973208662655,5791.5828575590685,-2414.7707122290985,28534.08050943381,8153.782266829285,14830.561260051878,10921.26350656313,0.0,0.0,0.0,2019-03-17T21:24:58.665190,11,EyesClosed
-18485.719679083788,-10644.817131139891,5912.55049855119,-2347.89429281882,28692.28615668847,7915.311505235613,14977.702793801165,10992.677330097835,0.0,0.0,0.0,2019-03-17T21:24:58.665851,11,EyesClosed
-18522.242429523758,-10694.840335230869,5984.903095353019,-2155.8928079477323,28696.532988134983,8342.654507476629,14984.96711074914,11140.020029547219,0.0,0.0,0.0,2019-03-17T21:24:58.671637,11,EyesClosed
-18676.961204643394,-10857.24811044313,5882.2191813253385,-2184.2571716615166,28553.79474804339,8654.640156583806,14855.125827208261,11099.451613360836,0.0,0.0,0.0,2019-03-17T21:24:58.672372,11,EyesClosed
-18664.13130332605,-10835.76808402158,5795.963799472309,-2375.3422350099368,28537.94736122458,8280.024919512858,14840.999524712506,10957.674498280823,0.024,1.014,0.21,2019-03-17T21:24:58.679395,11,EyesClosed
-18509.725452628787,-10669.11347736281,5895.183193109417,-2361.3947464698253,28689.648650842748,7930.756560654231,14979.289767657492,10991.55974287507,0.0,0.0,0.0,2019-03-17T21:24:58.686566,11,EyesClosed
-18507.51262992771,-10668.73349770707,5995.810746647209,-2161.1231161502737,28732.34048275238,8273.520561876365,15016.594829153399,11145.518558683225,0.0,0.0,0.0,2019-03-17T21:24:58.687299,11,EyesClosed
-18665.36064927109,-10835.276345643562,5910.427082827936,-2147.354441565805,28590.80923686138,8673.393270181808,14882.305548465914,11135.504977167247,0.0,0.0,0.0,2019-03-17T21:24:58.694627,11,EyesClosed
-18703.068042167193,-10870.994433283144,5787.514840068203,-2352.9010835768086,28523.776355239912,8383.982882974493,14813.350416821291,10969.185646675307,0.0,0.0,0.0,2019-03-17T21:24:58.695283,11,EyesClosed
-18534.312371529624,-10691.241704373564,5871.825620153621,-2380.103156578917,28676.930508247675,7968.7768779727085,14951.260680110538,10970.303233898072,0.0,0.0,0.0,2019-03-17T21:24:58.700992,11,EyesClosed
-18485.719679083788,-10640.145616548733,6002.292752539248,-2185.307703650916,28764.07995987892,8217.52944201582,15033.939782850717,11134.029762033197,0.0,0.0,0.0,2019-03-17T21:24:58.701592,11,EyesClosed
-18637.152747768494,-10804.319179572962,5943.46296113288,-2129.8753774017546,28636.250333339016,8682.62454064185,14915.408482004224,11162.416477491437,0.0,0.0,0.0,2019-03-17T21:24:58.709319,11,EyesClosed
-18707.359577102612,-10874.928340307277,5808.905459511931,-2323.0615047289734,28537.008587957454,8511.834861258849,14820.79354772491,11004.389644192415,0.0,0.0,0.0,2019-03-17T21:24:58.710013,11,EyesClosed
-18566.34242133408,-10721.774187299514,5853.92187284492,-2413.0272761615847,28655.89751671523,8034.245137482302,14930.205336833638,10957.205111647263,0.0,0.0,0.0,2019-03-17T21:24:58.717287,11,EyesClosed
-18484.42327790538,-10631.29432574443,5993.262647779304,-2238.6836694101894,28772.21599486065,8155.6151098746195,15038.656000930787,11106.984151242275,0.028,1.016,0.214,2019-03-17T21:24:58.717978,11,EyesClosed
-18615.605666113577,-10775.731298414625,5969.301577723215,-2135.485665260037,28676.215252425107,8658.819932796947,14950.545424287966,11180.677852711422,0.0,0.0,0.0,2019-03-17T21:24:58.723949,11,EyesClosed
-18719.116594686104,-10883.10907877792,5827.815035321121,-2301.983809707619,28551.31370440885,8615.837528209393,14831.321219363359,11042.789941166633,0.0,0.0,0.0,2019-03-17T21:24:58.724603,11,EyesClosed
-18599.177133938927,-10758.27458599503,5834.028820279696,-2435.267261894615,28638.03847289544,8111.738635508852,14907.80888888942,10958.009774447653,0.0,0.0,0.0,2019-03-17T21:24:58.731983,11,EyesClosed
-18478.65652783591,-10632.747189134025,5981.080947051161,-2291.9925799360967,28779.50266355308,8098.796975469229,15036.867861374363,11089.370976611493,0.0,0.0,0.0,2019-03-17T21:24:58.732639,11,EyesClosed
-18580.938110463394,-10743.187158487697,6000.057578093717,-2143.3981827972157,28716.716613378125,8602.828812936403,14978.01571822354,11195.005320907274,0.0,0.0,0.0,2019-03-17T21:24:58.739089,11,EyesClosed
-18710.98055970437,-10880.96331131021,5872.518524231735,-2256.9003411412646,28582.717905368558,8690.76057562358,14850.476664361557,11088.119278921995,0.0,0.0,0.0,2019-03-17T21:24:58.739824,11,EyesClosed
-18616.656198102977,-10781.162772317264,5849.473875698313,-2415.0612849070176,28639.46898454058,8204.118395342635,14895.85070560583,10975.801763034078,0.0,0.0,0.0,2019-03-17T21:24:58.747204,11,EyesClosed
-18477.98597550225,-10630.735532133047,5980.835077862153,-2314.9031180027864,28784.93413745572,8055.971033092861,15026.317837991457,11073.411831070403,0.0,0.0,0.0,2019-03-17T21:24:58.753380,11,EyesClosed
-18547.34343854707,-10705.010378958033,6025.784435961776,-2137.3632117942825,28756.480366764114,8530.185643456656,14998.959302778161,11207.857573969075,0.0,0.0,0.0,2019-03-17T21:24:58.754071,11,EyesClosed
-18699.06707990969,-10856.95753776521,5900.234687356316,-2212.6215353753014,28605.874312624255,8746.930509439768,14859.37265865477,11137.047247534663,0.03,1.016,0.212,2019-03-17T21:24:58.761490,11,EyesClosed
-18653.31305900968,-10807.493127285616,5831.480721411792,-2402.924287667786,28614.703251684103,8307.562268681797,14866.726382580566,11002.065062769063,0.0,0.0,0.0,2019-03-17T21:24:58.762466,11,EyesClosed
-18503.578722903578,-10650.405067253718,5948.4921036353235,-2352.5434556655237,28770.427855304228,8039.721314873853,15009.934009305718,11070.595511269035,0.0,0.0,0.0,2019-03-17T21:24:58.769705,11,EyesClosed
-18530.356112761034,-10680.8704949463,6034.412209321525,-2154.059964902397,28787.348125856894,8454.122657075246,15027.904811847784,11231.259850413782,0.0,0.0,0.0,2019-03-17T21:24:58.770352,11,EyesClosed
-18688.494704782333,-10852.889520274344,5928.867272003565,-2185.017130972997,28636.786775205946,8769.729288784181,14886.95471131262,11195.5417627742,0.0,0.0,0.0,2019-03-17T21:24:58.776872,11,EyesClosed
-18684.203169846915,-10853.738886563646,5831.480721411792,-2388.7979851720315,28603.840303878824,8398.37740640371,14849.515539349979,11046.433275512849,0.0,0.0,0.0,2019-03-17T21:24:58.777655,11,EyesClosed
-18519.515516700212,-10680.155239123731,5931.996516227307,-2380.237267045649,28758.201451087174,8040.6824398854305,14989.30334917347,11085.437069587359,0.0,0.0,0.0,2019-03-17T21:24:58.784264,11,EyesClosed
-18500.248312979737,-10654.786009166957,6045.72219201591,-2172.634264544757,28817.120649471362,8366.079135665792,15040.69000967622,11252.046972757218,0.0,0.0,0.0,2019-03-17T21:24:58.784928,11,EyesClosed
-18654.40829448799,-10813.103415143898,5976.029452804262,-2139.3301653063495,28685.312412418418,8782.805059290537,14920.258810551026,11264.787467096743,0.0,0.0,0.0,2019-03-17T21:24:58.792241,11,EyesClosed
-18693.680309495965,-10851.906043518311,5860.87326537052,-2331.4434088997136,28618.23482730804,8519.680323562661,14852.734190551542,11113.332046667581,0.0,0.0,0.0,2019-03-17T21:24:58.792967,11,EyesClosed
-18543.43188326739,-10692.135774151777,5924.843958001609,-2383.724139180677,28753.082901606907,8072.131344334048,14973.120686187827,11099.630427316479,0.03,1.016,0.20800000000000002,2019-03-17T21:24:58.800420,11,EyesClosed
-18485.920844783886,-10625.035837296944,6055.489904342879,-2192.7284828100783,28844.970923062676,8287.199829483012,15062.125332608859,11266.173275252972,0.0,0.0,0.0,2019-03-17T21:24:58.801124,11,EyesClosed
-18632.838861088618,-10782.973263618143,6005.690217696455,-2120.7558656639894,28724.45031695966,8758.39695434534,14955.57456679041,11312.19551708645,0.0,0.0,0.0,2019-03-17T21:24:58.806449,11,EyesClosed
-18711.159373660015,-10867.440505914748,5871.713861431344,-2309.6281063113342,28619.62063546427,8610.69662698467,14855.952841753107,11160.695393168378,0.0,0.0,0.0,2019-03-17T21:24:58.813762,11,EyesClosed
-18568.711706246344,-10712.609972072838,5906.962562437363,-2412.1779098722827,28733.659235675244,8119.494690834844,14958.748514503064,11107.878221020488,0.0,0.0,0.0,2019-03-17T21:24:58.814490,11,EyesClosed
-18472.867426021985,-10609.568430133872,6051.310128129737,-2241.120009555818,28856.07974005696,8206.979418632915,15071.423658302267,11256.98670828184,0.0,0.0,0.0,2019-03-17T21:24:58.821684,11,EyesClosed
-18599.311244405657,-10742.94128929869,6035.887424455575,-2126.8578919002885,28763.65527673427,8704.1045670634,14987.045822983484,11336.603622031644,0.0,0.0,0.0,2019-03-17T21:24:58.822436,11,EyesClosed
-18708.61127479211,-10860.489113389149,5897.910105932964,-2277.598056506879,28636.965589161588,8685.016177298568,14865.586443613345,11204.281294856226,0.0,0.0,0.0,2019-03-17T21:24:58.829735,11,EyesClosed
-18593.410383869457,-10741.51077765355,5900.078225145129,-2408.2663545926043,28722.30454949195,8183.711252654941,14942.744665473065,11116.43893914687,0.0,0.0,0.0,2019-03-17T21:24:58.830381,11,EyesClosed
-18468.66529806439,-10612.295342957419,6042.6376512810775,-2271.5407337594906,28864.28283027206,8136.70553406543,15072.071858891471,11235.864309771576,0.0,0.0,0.0,2019-03-17T21:24:58.836391,11,EyesClosed
-18574.187883637893,-10718.64494307577,6056.33927063218,-2125.0026971104976,28799.395716118303,8627.728656259616,15011.722148862142,11339.285831366282,0.026000000000000002,1.014,0.2,2019-03-17T21:24:58.837044,11,EyesClosed
-18708.27599862528,-10857.896311032333,5919.904222476986,-2241.678803167201,28653.43882482515,8738.593308757938,14872.359022183302,11230.41048412448,0.0,0.0,0.0,2019-03-17T21:24:58.845753,11,EyesClosed
-18625.97687554084,-10769.092830311398,5885.303722060171,-2414.7483604846434,28700.73511609258,8259.953052991994,14911.139298813261,11109.10756696553,0.0,0.0,0.0,2019-03-17T21:24:58.846535,11,EyesClosed
-18478.164789457893,-10618.9561628051,6021.962287659918,-2317.9653069931637,28859.812481381,8093.1643358664915,15057.11854185087,11205.845916968097,0.0,0.0,0.0,2019-03-17T21:24:58.852626,11,EyesClosed
-18539.94501113236,-10680.848143201845,6076.165267964037,-2139.2631100729836,28840.388815449336,8546.50241690903,15039.281849775536,11339.039962177272,0.0,0.0,0.0,2019-03-17T21:24:58.853522,11,EyesClosed
-18694.283806596257,-10836.259822399596,5954.03533626024,-2208.598221373346,28691.168569465706,8777.015957476611,14896.431850961668,11264.921577563475,0.0,0.0,0.0,2019-03-17T21:24:58.859114,11,EyesClosed
-18658.476311978855,-10799.178278348241,5880.252227813271,-2404.511261524113,28694.96836602311,8345.180254600078,14894.71076663861,11120.059921748629,0.0,0.0,0.0,2019-03-17T21:24:58.859763,11,EyesClosed
-18503.310501970114,-10645.800607895924,5994.983732102362,-2363.3393482374368,28855.588001678945,8057.759172649286,15041.40526549879,11177.526256743224,0.0,0.0,0.0,2019-03-17T21:24:58.866227,11,EyesClosed
-18519.917848100406,-10663.905520904724,6082.334349433702,-2162.28540686195,28885.025249126586,8454.01089835297,15072.429486802755,11336.827139476198,0.0,0.0,0.0,2019-03-17T21:24:58.874031,11,EyesClosed
-18682.571492501676,-10828.392008351328,5983.271418007782,-2174.355348867816,28741.750567168066,8799.904143798845,14941.850595694852,11311.346150797148,0.0,0.0,0.0,2019-03-17T21:24:58.874750,11,EyesClosed
-18687.3100623262,-10829.66605778528,5882.35329179207,-2371.631845430356,28706.099534761852,8456.111962331768,14905.394900488247,11156.381506488504,0.032,1.012,0.20800000000000002,2019-03-17T21:24:58.882068,11,EyesClosed
-18523.360016746523,-10660.0163173695,5973.749574869821,-2378.0244443445736,28856.57147843498,8067.973919865361,15045.808559156485,11172.899445640975,0.0,0.0,0.0,2019-03-17T21:24:58.882933,11,EyesClosed
-18506.819725849597,-10641.531424704961,6086.894105302586,-2180.4573751041144,28914.887179718877,8361.049993163348,15105.733586041164,11331.395665573558,0.0,0.0,0.0,2019-03-17T21:24:58.888659,11,EyesClosed
-18672.22263481887,-10816.500880301104,6011.7028369549325,-2149.276691588961,28770.494910537593,8777.485344110173,14972.785410020997,11332.200328373949,0.0,0.0,0.0,2019-03-17T21:24:58.889358,11,EyesClosed
-18705.817306735196,-10848.553281850014,5902.805137968676,-2331.2869466885268,28704.959595794633,8547.620004131795,14910.938133113163,11184.567056246646,0.0,0.0,0.0,2019-03-17T21:24:58.896737,11,EyesClosed
-18543.76715943422,-10676.601311755338,5972.3190632246815,-2385.959313626208,28846.244972496628,8095.868896945584,15035.236184029125,11164.964576359342,0.0,0.0,0.0,2019-03-17T21:24:58.897410,11,EyesClosed
-18484.08800173855,-10612.42945342415,6103.948486321984,-2205.3572184273266,28939.33998815298,8274.191114210023,15118.071748980494,11315.10124386564,0.0,0.0,0.0,2019-03-17T21:24:58.904759,11,EyesClosed
-18631.45305293239,-10761.828513363424,6061.211950923437,-2126.7237814335563,28819.802858806,8748.986869929657,15007.20709648217,11354.82029376272,0.0,0.0,0.0,2019-03-17T21:24:58.905546,11,EyesClosed
-18706.55491430222,-10838.494996845127,5929.917803992964,-2295.3229898599375,28714.7273081216,8631.37199060583,14904.433775476668,11209.243382125305,0.0,0.0,0.0,2019-03-17T21:24:58.911797,11,EyesClosed
-18577.227720883813,-10705.435062102684,5951.84486530362,-2403.974819657185,28814.23727443663,8131.1399496960585,14991.739689319098,11140.802340603155,0.0,0.0,0.0,2019-03-17T21:24:58.912469,11,EyesClosed
-18477.13660921295,-10595.129203215743,6099.187564753004,-2235.7779426309994,28945.687883578288,8197.837555150694,15112.774385544586,11285.574589440179,0.034,1.01,0.20800000000000002,2019-03-17T21:24:58.919551,11,EyesClosed
-18598.52893334972,-10720.634248332293,6098.5840676527105,-2104.0367608114198,28867.456777984713,8705.95976185319,15042.612259699377,11375.719174828431,0.0,0.0,0.0,2019-03-17T21:24:58.920271,11,EyesClosed
-18718.13311793007,-10845.781665537557,5958.215112473383,-2255.5592364739464,28736.16263105424,8711.502994478107,14915.631999448777,11245.028524998252,0.0,0.0,0.0,2019-03-17T21:24:58.926459,11,EyesClosed
-18619.36075918207,-10737.398056673772,5939.238481430827,-2411.686171494266,28803.977823731642,8197.345816772679,14969.902034986262,11134.275631222205,0.0,0.0,0.0,2019-03-17T21:24:58.934111,11,EyesClosed
-18491.50878089771,-10606.819165565868,6079.8533057991635,-2287.611638022857,28950.560563869545,8121.908679236017,15103.967798229194,11248.582452366645,0.0,0.0,0.0,2019-03-17T21:24:58.934904,11,EyesClosed
-18575.01489818274,-10697.053157931943,6114.945544593996,-2122.9910401095203,28908.33811859347,8621.939554445691,15068.853207689906,11371.740564315387,0.0,0.0,0.0,2019-03-17T21:24:58.941550,11,EyesClosed
-18719.98831271986,-10846.42986612676,5981.863258107097,-2234.570948430413,28759.74372145459,8757.614643289406,14928.394845532757,11269.391926454537,0.0,0.0,0.0,2019-03-17T21:24:58.942424,11,EyesClosed
-18655.481178221846,-10775.150153058787,5933.784655783732,-2417.3858663303695,28792.04199219251,8280.248436957412,14953.518206300523,11139.7294568693,0.0,0.0,0.0,2019-03-17T21:24:58.950409,11,EyesClosed
-18508.451403194835,-10618.9561628051,6077.551076120267,-2333.276251945049,28949.01829350213,8083.463678772889,15099.18452491576,11225.336638133125,0.0,0.0,0.0,2019-03-17T21:24:58.951166,11,EyesClosed
-18553.423113038913,-10666.520675005993,6167.65095801961,-2142.2358920855395,28946.470194634225,8538.835768560859,15101.665568550297,11373.551055616266,0.0,0.0,0.0,2019-03-17T21:24:58.958421,11,EyesClosed
-18715.875591740085,-10836.036304955043,6072.164305706538,-2204.7090178381227,28791.818474747954,8796.819603064014,14957.586223791388,11306.160546083516,0.038,1.02,0.2,2019-03-17T21:24:58.959059,11,EyesClosed
-18697.45775430891,-10806.599057507403,6032.333497087181,-2408.6463342483444,28779.547367041992,8375.310406125833,14940.978877661095,11150.01125931874,0.0,0.0,0.0,2019-03-17T21:24:58.965188,11,EyesClosed
-18531.13842381697,-10631.137863533242,6184.79474601683,-2369.329615751459,28945.754938811653,8069.3820797660455,15089.863847477896,11201.509678543769,0.0,0.0,0.0,2019-03-17T21:24:58.965853,11,EyesClosed
-18538.447444253856,-10644.615965439792,6291.412567068644,-2170.019110443486,28977.293250238094,8441.784494135916,15118.965818758705,11351.445180349969,0.0,0.0,0.0,2019-03-17T21:24:58.971618,11,EyesClosed
-18700.74346074384,-10820.412435580783,6196.708225811509,-2170.8237732438774,28831.02343452256,8801.625228121904,14983.804820037463,11325.517156781812,0.0,0.0,0.0,2019-03-17T21:24:58.972267,11,EyesClosed
-18708.27599862528,-10830.336610118939,6101.82507059873,-2360.7465458806214,28792.533730570525,8483.716366734072,14947.10325564185,11174.464067752848,0.0,0.0,0.0,2019-03-17T21:24:58.979678,11,EyesClosed
-18545.890575157475,-10659.144599335743,6185.644112306132,-2376.0351390880514,28940.167002697828,8083.798954939718,15084.722946253176,11179.31439629965,0.0,0.0,0.0,2019-03-17T21:24:58.980324,11,EyesClosed
-18512.944103830352,-10621.593668650827,6300.822651484329,-2176.545819824436,29010.93262564333,8360.513551296419,15151.845234852462,11336.871842965109,0.0,0.0,0.0,2019-03-17T21:24:58.986857,11,EyesClosed
-18677.587053488143,-10790.796374177502,6227.03954303736,-2140.0454211289193,28871.56949896449,8791.11990822791,15023.657980401276,11342.325668612202,0.0,0.0,0.0,2019-03-17T21:24:58.987719,11,EyesClosed
-18720.502402842332,-10833.689371787235,6112.129224792627,-2325.117865218862,28796.624099805846,8580.588827203374,14952.400619077758,11186.288140569704,0.0,0.0,0.0,2019-03-17T21:24:58.994923,11,EyesClosed
-18568.734057990798,-10671.572169252893,6170.556684798799,-2396.039950375551,28923.447897845257,8108.698798262931,15070.104905379405,11148.625451162512,0.028,1.022,0.202,2019-03-17T21:24:59.001153,11,EyesClosed
-18500.80710659112,-10598.660778839681,6303.169584652136,-2215.8401865768656,29018.93455015833,8261.294157659311,15160.540063445576,11295.5658192117,0.0,0.0,0.0,2019-03-17T21:24:59.002012,11,EyesClosed
-18642.047779804205,-10744.952946299667,6261.684746943087,-2125.807359910889,28904.404211569337,8743.533044282562,15056.22447207266,11344.270270379815,0.0,0.0,0.0,2019-03-17T21:24:59.009198,11,EyesClosed
-18724.41395812201,-10828.034380440044,6131.374076768646,-2293.1995741366836,28797.406410861782,8655.020136239546,14950.590127776877,11201.487326799313,0.0,0.0,0.0,2019-03-17T21:24:59.010103,11,EyesClosed
-18588.24713090028,-10683.329186836385,6158.93377768204,-2403.147805112339,28904.113638891416,8164.399345445556,15047.954326624194,11136.175529500906,0.0,0.0,0.0,2019-03-17T21:24:59.017403,11,EyesClosed
-18489.787696574655,-10580.466458853061,6292.708968247052,-2253.2570067950496,29027.94230317382,8192.42843299251,15164.85395012545,11265.927406063964,0.0,0.0,0.0,2019-03-17T21:24:59.018204,11,EyesClosed
-18602.82046828514,-10708.609009815336,6289.602075767765,-2116.956069106587,28953.98038077121,8699.053072816501,15100.570333071988,11361.592872332678,0.0,0.0,0.0,2019-03-17T21:24:59.023824,11,EyesClosed
-18726.783243034275,-10836.595098566426,6152.518827023367,-2252.8099719059437,28819.042899494518,8736.089913378944,14975.735840289099,11241.407542396491,0.0,0.0,0.0,2019-03-17T21:24:59.024499,11,EyesClosed
-18633.35295121109,-10731.02780950401,6133.184568069526,-2410.9932674161514,28883.795903181544,8236.72959050293,15032.799843883497,11135.952012056352,0.0,0.0,0.0,2019-03-17T21:24:59.031979,11,EyesClosed
-18494.302748954626,-10583.975682732545,6275.431069783101,-2290.182088635217,29039.296989357113,8141.80173180124,15174.91223513034,11254.505664647302,0.0,0.0,0.0,2019-03-17T21:24:59.032781,11,EyesClosed
-18584.559093065156,-10678.747079223047,6303.393102096689,-2128.1319413342408,28997.45452373678,8622.475996312618,15139.23885097967,11374.936863772497,0.024,1.02,0.202,2019-03-17T21:24:59.039875,11,EyesClosed
-18732.102958214637,-10833.331743875951,6170.623740032165,-2225.093808781363,28848.99423706463,8783.542666857562,15001.239180712604,11280.254874259816,0.0,0.0,0.0,2019-03-17T21:24:59.040593,11,EyesClosed
-18674.301347053213,-10768.42227797774,6114.051474815783,-2410.099197637939,28872.776493165078,8313.530184451363,15021.623971655843,11143.864529593531,0.0,0.0,0.0,2019-03-17T21:24:59.046973,11,EyesClosed
-18523.248258024247,-10605.567467876372,6240.294127499357,-2333.2539002005938,29035.586599777533,8092.65024574402,15171.827694395506,11225.35898987758,0.0,0.0,0.0,2019-03-17T21:24:59.047656,11,EyesClosed
-18572.556206292655,-10658.362288279806,6307.461119587555,-2141.8782641742546,29039.185230634837,8533.381942913764,15177.974424120715,11373.640462594089,0.0,0.0,0.0,2019-03-17T21:24:59.053879,11,EyesClosed
-18740.887193785573,-10839.165549178786,6182.492516337934,-2198.9422677686534,28882.164225836306,8811.147071259866,15028.955343837184,11309.558011240722,0.0,0.0,0.0,2019-03-17T21:24:59.061260,11,EyesClosed
-18716.814365007205,-10814.645685511314,6099.8134135977525,-2396.0623021200063,28877.202138567227,8414.09068275579,15013.35382620738,11160.963614101842,0.0,0.0,0.0,2019-03-17T21:24:59.062003,11,EyesClosed
-18549.645668225967,-10639.564471192894,6210.745121329442,-2371.497734963624,29042.18036439185,8078.278074059257,15156.852025610451,11201.30851284367,0.0,0.0,0.0,2019-03-17T21:24:59.069480,11,EyesClosed
-18560.48626428679,-10650.494474231538,6299.839174728296,-2177.886924491754,29077.809045053607,8423.411360193653,15183.67411895682,11345.924299469507,0.0,0.0,0.0,2019-03-17T21:24:59.070279,11,EyesClosed
-18717.730786529875,-10821.082987914442,6210.454548651523,-2167.828639486866,28937.954179996752,8805.872059568414,15049.384838269334,11327.506462038335,0.0,0.0,0.0,2019-03-17T21:24:59.076446,11,EyesClosed
-18730.024245980294,-10832.884708986845,6108.463538701956,-2359.3160342354818,28889.562653251014,8502.313018120887,14999.719262089642,11171.82656190712,0.026000000000000002,1.022,0.21,2019-03-17T21:24:59.077151,11,EyesClosed
-18570.18692138039,-10649.712163175604,6192.550801342822,-2385.020540359085,29037.017111422672,8082.167277594481,15135.126129999893,11169.16670431694,0.0,0.0,0.0,2019-03-17T21:24:59.084199,11,EyesClosed
-18533.99944710725,-10616.162194748187,6308.466948088044,-2193.3096281659164,29111.537827436667,8332.529167238376,15207.411671568356,11321.538546268768,0.0,0.0,0.0,2019-03-17T21:24:59.084921,11,EyesClosed
