eeg1,eeg2,eeg3,eeg4,eeg5,eeg6,eeg7,eeg8,accx,accy,accz,iso_utc,session_id,command_name
0.0,0.0,0.0,0.0,0.0,0.0,0.0,0.0,0.006,1.028,0.166,2019-03-17T21:26:02.794268,13,EyesClosed
-19716.272618326264,-9716.146852510792,7519.7303318655895,-1736.1941023104314,28875.68221994427,10164.34403232861,16047.904318321267,10904.007959843631,0.0,0.0,0.0,2019-03-17T21:26:02.809738,13,EyesClosed
-19788.06642151671,-9794.84734473793,7394.582914660325,-1902.3793223356395,28774.048837905986,10082.313130177634,15951.523596229983,10764.354260486873,0.0,0.0,0.0,2019-03-17T21:26:02.815850,13,EyesClosed
-19661.309678710662,-9665.497799575067,7406.004656076987,-2036.6015477897583,28873.37999026537,9521.306696093881,16043.813949085947,10677.450678044639,0.0,0.0,0.0,2019-03-17T21:26:02.816659,13,EyesClosed
-19569.287546788164,-9561.763353557988,7545.434837989193,-1874.7972696777904,28999.01914584865,9533.6001555443,16162.38995342135,10809.437729053227,0.0,0.0,0.0,2019-03-17T21:26:02.822340,13,EyesClosed
-19683.817885377157,-9681.591055582889,7544.451361233158,-1725.241747527331,28913.836647729477,10075.764069052228,16084.002385616588,10901.169288297808,0.0,0.0,0.0,2019-03-17T21:26:02.823029,13,EyesClosed
-19790.793334340255,-9798.535382573054,7413.090159069319,-1857.5640747027487,28788.666878779757,10127.821281888639,15961.738343446059,10776.84888563739,0.0,0.0,0.0,2019-03-17T21:26:02.829498,13,EyesClosed
-19699.173533817953,-9700.366520925347,7390.380786702727,-2032.5782337878031,28856.50442320161,9571.03932750694,16022.065701730931,10654.674250444681,0.0,0.0,0.0,2019-03-17T21:26:02.830331,13,EyesClosed
-19588.085363875078,-9580.225894478071,7517.115177764318,-1930.09548546022,28987.50799745417,9433.084360728784,16144.061522967999,10745.109408510854,0.002,1.032,0.168,2019-03-17T21:26:02.837409,13,EyesClosed
-19667.389353202507,-9660.580415794899,7559.427030018214,-1742.720811691381,28941.843383531977,9962.68659385283,16103.873086437356,10874.637767629358,0.0,0.0,0.0,2019-03-17T21:26:02.845202,13,EyesClosed
-19789.206360483928,-9790.913437713794,7441.655688483202,-1817.241527705375,28806.704736555188,10171.273073109756,15976.043459897455,10798.887705670322,0.0,0.0,0.0,2019-03-17T21:26:02.845989,13,EyesClosed
-19728.29785684322,-9717.711474622665,7378.6237691192355,-2018.8319109477893,28831.828097322956,9664.179046652203,15995.154201406742,10654.786009166957,0.0,0.0,0.0,2019-03-17T21:26:02.852076,13,EyesClosed
-19579.88227365998,-9560.13167621275,7504.10646249133,-1954.7494595944238,28985.83161662002,9402.171898147095,16136.081950197453,10728.613821102837,0.0,0.0,0.0,2019-03-17T21:26:02.852720,13,EyesClosed
-19630.508974851247,-9620.123758330794,7571.273454579527,-1754.9248641639788,28971.526500168624,9866.708203161741,16125.487223325637,10876.291796719051,0.0,0.0,0.0,2019-03-17T21:26:02.859908,13,EyesClosed
-19772.15197946453,-9776.518914284577,7469.237741141051,-1782.7080825219255,28826.88836179833,10201.358521146598,15992.650806027748,10836.885671244345,0.0,0.0,0.0,2019-03-17T21:26:02.860556,13,EyesClosed
-19750.448435598428,-9747.59575695941,7378.780231330423,-1997.3295327817839,28810.795105790512,9772.160324115792,15977.317509331408,10680.088183890366,0.0,0.0,0.0,2019-03-17T21:26:02.867873,13,EyesClosed
-19589.180599353385,-9573.498019397024,7478.826639512377,-1984.745500653446,28964.798625087577,9391.890095697654,16120.480432567649,10713.861669762335,0.0,0.0,0.0,2019-03-17T21:26:02.868674,13,EyesClosed
-19588.554750508636,-9576.515504898489,7577.263722093549,-1773.2532946173305,28997.5439307146,9772.585007260443,16152.890462027844,10874.324843206983,0.0,0.0,0.0,2019-03-17T21:26:02.875281,13,EyesClosed
-19743.877022728568,-9741.851358634396,7488.639055328257,-1758.2329223433642,28850.223583009672,10201.02324497977,16017.260076673041,10865.540607636049,0.002,1.028,0.166,2019-03-17T21:26:02.876074,13,EyesClosed
-19765.513511361303,-9756.245882063613,7376.723870840535,-1976.3635964827058,28793.941890471207,9871.267959030623,15965.44873302564,10701.411748100729,0.0,0.0,0.0,2019-03-17T21:26:02.882551,13,EyesClosed
-19617.50025957826,-9594.083976040361,7445.924871674165,-2028.4878645524818,28930.019310715117,9391.487764297457,16092.764269443069,10684.603236270337,0.0,0.0,0.0,2019-03-17T21:26:02.883185,13,EyesClosed
-19583.324442306097,-9564.803190803908,7565.059669620952,-1826.8974813100674,28996.046363836096,9645.537691776479,16157.29375568554,10840.126674190364,0.0,0.0,0.0,2019-03-17T21:26:02.890766,13,EyesClosed
-19730.935362688942,-9726.45100670469,7516.846956830855,-1748.6440239720375,28870.876594886377,10151.782351944728,16043.679838619215,10879.130468264875,0.0,0.0,0.0,2019-03-17T21:26:02.891503,13,EyesClosed
-19796.24715998735,-9790.980492947161,7391.520725669948,-1943.1712559665748,28780.329678097925,9960.004384518194,15959.547872489438,10721.036579732488,0.0,0.0,0.0,2019-03-17T21:26:02.897759,13,EyesClosed
-19658.761579842758,-9640.463845785123,7428.736380188034,-2043.932919971099,28896.894025432353,9423.607221079734,16067.842074375401,10665.336032549863,0.0,0.0,0.0,2019-03-17T21:26:02.904903,13,EyesClosed
-19594.790887211668,-9565.585501859845,7554.196721815672,-1862.839086394201,28993.922948112842,9542.831426004343,16157.584328363459,10807.09079588542,0.0,0.0,0.0,2019-03-17T21:26:02.905587,13,EyesClosed
-19720.18417360594,-9706.4908989061,7535.533015195491,-1733.981279609356,28890.61318524041,10089.71155759234,16062.32119349494,10878.996357798143,0.0,0.0,0.0,2019-03-17T21:26:02.912350,13,EyesClosed
-19808.093584548664,-9796.344911616436,7400.796699618901,-1898.6242292671477,28770.897241937786,10031.641725497453,15948.819035150891,10736.012248517543,0.0,0.0,0.0,2019-03-17T21:26:02.913119,13,EyesClosed
-19688.779972646236,-9657.898206460262,7403.65772290918,-2044.0446786933755,28862.94172560474,9470.344718735781,16031.587544868893,10642.514901460994,0.0,1.03,0.17,2019-03-17T21:26:02.920274,13,EyesClosed
-19585.313747562617,-9556.51069361099,7535.018925073019,-1901.1276246461423,28989.385543988414,9446.026020768408,16144.24033692364,10760.93444358521,0.0,0.0,0.0,2019-03-17T21:26:02.920958,13,EyesClosed
-19684.42138247745,-9669.074078687916,7553.235596804095,-1731.947270863923,28921.190371655273,10004.104376328514,16083.778868172036,10871.843799572445,0.0,0.0,0.0,2019-03-17T21:26:02.927550,13,EyesClosed
-19806.7748316258,-9803.877449497873,7419.974496361554,-1859.8216008927348,28782.520149054548,10096.148859995468,15953.579956719872,10758.945138328689,0.0,0.0,0.0,2019-03-17T21:26:02.928201,13,EyesClosed
-19717.077281126654,-9696.276151690025,7384.41287093316,-2043.3070711263504,28838.17599274826,9554.208463932093,16006.687701545681,10639.72093340408,0.0,0.0,0.0,2019-03-17T21:26:02.935035,13,EyesClosed
-19574.49550324625,-9532.728437510543,7518.657448131735,-1932.777694794857,28986.390410231405,9402.082491169274,16148.531871859059,10745.17646374422,0.0,0.0,0.0,2019-03-17T21:26:02.935807,13,EyesClosed
-19646.64693434798,-9607.919705858196,7569.328852811916,-1733.4895412313392,28953.131014481907,9925.58269805702,16121.598019790414,10884.517238678603,0.0,0.0,0.0,2019-03-17T21:26:02.943103,13,EyesClosed
-19790.212188984417,-9768.137010113836,7447.690659486135,-1809.8654520351236,28804.201341176195,10151.447075777898,15985.0735646574,10804.475641784149,0.0,0.0,0.0,2019-03-17T21:26:02.943885,13,EyesClosed
-19740.077226171165,-9721.511271180067,7382.423565676638,-2014.2050998455406,28819.355823916892,9658.278186116004,15997.657596785737,10658.406991768717,0.0,0.0,0.0,2019-03-17T21:26:02.952207,13,EyesClosed
-19601.049375659153,-9565.809019304397,7492.975293752586,-1971.0215295578873,28961.132938996907,9361.603481960712,16128.683522782747,10712.051178461454,0.0,0.0,0.0,2019-03-17T21:26:02.952850,13,EyesClosed
-19633.280591163708,-9597.99553132004,7575.766155215044,-1760.4904485333502,28960.39533142988,9809.532440845065,16130.181089661253,10863.037212257053,-0.002,1.02,0.168,2019-03-17T21:26:02.958682,13,EyesClosed
-19784.57954938168,-9759.576291987454,7474.892732488243,-1781.3893295990622,28808.02348947805,10156.789142702717,15990.393279837763,10821.418264081272,0.0,0.0,0.0,2019-03-17T21:26:02.964576,13,EyesClosed
-19770.319136419195,-9740.823178389452,7384.41287093316,-1992.6803699350799,28788.46571307966,9750.367373271869,15969.427343538684,10664.710183705114,0.0,0.0,0.0,2019-03-17T21:26:02.965482,13,EyesClosed
-19624.541059081683,-9594.642769651744,7475.228008655073,-2000.615239216714,28932.366243882927,9338.46942644947,16099.492144524116,10679.954073423634,0.0,0.0,0.0,2019-03-17T21:26:02.972297,13,EyesClosed
-19612.269951375718,-9582.394013690235,7585.846791964387,-1780.6740737764924,28976.30977348206,9696.432613901212,16140.14996768832,10846.899252760322,0.0,0.0,0.0,2019-03-17T21:26:02.973220,13,EyesClosed
-19768.307479418218,-9746.902852881296,7505.782843325477,-1748.8675414165905,28828.81061182149,10144.67449720794,16005.793631767468,10850.162607450797,0.0,0.0,0.0,2019-03-17T21:26:02.980646,13,EyesClosed
-19783.081982503176,-9765.544207757022,7396.371054216749,-1948.5356746358484,28777.78157923002,9857.119304790414,15959.324355044886,10701.635265545281,0.0,0.0,0.0,2019-03-17T21:26:02.981293,13,EyesClosed
-19634.644047575483,-9600.320112743391,7460.0958776588295,-2011.0088003884318,28910.685051761277,9362.117572083185,16084.158847827775,10679.39527981225,0.0,0.0,0.0,2019-03-17T21:26:02.986893,13,EyesClosed
-19589.605282498036,-9551.41449587518,7585.019777419541,-1811.5865363581822,28981.607136917966,9588.674853882178,16152.555185861014,10833.398799109316,0.0,0.0,0.0,2019-03-17T21:26:02.987332,13,EyesClosed
-19731.38239757805,-9703.875744804829,7534.594241928368,-1723.6547736710042,28854.179841778263,10102.742624609784,16034.157995481253,10876.314148463505,0.0,0.0,0.0,2019-03-17T21:26:02.994906,13,EyesClosed
-19798.7729071108,-9776.69772824022,7403.210688020074,-1910.7835782508348,28758.290858064993,9936.512701095666,15941.889994369745,10724.54580361197,0.002,1.024,0.17200000000000001,2019-03-17T21:26:02.995322,13,EyesClosed
-19659.40978043196,-9627.812758423419,7436.000697136009,-2017.0437713913645,28874.296411788036,9396.651017266633,16049.401885199773,10667.660613973214,0.0,0.0,0.0,2019-03-17T21:26:03.002914,13,EyesClosed
-19570.44983749984,-9535.79062650092,7576.034376148507,-1835.4358476919947,28983.261166007658,9495.669245203644,16151.169377704786,10818.71370300218,0.0,0.0,0.0,2019-03-17T21:26:03.003361,13,EyesClosed
-19703.57682747565,-9680.96520673814,7554.956681127153,-1709.2826019862416,28875.23518505516,10038.459007556321,16049.558347410959,10894.039081816565,0.0,0.0,0.0,2019-03-17T21:26:03.010175,13,EyesClosed
-19799.264645488816,-9784.677301010764,7423.237851052028,-1865.1636678175532,28756.703884208666,10016.84487066804,15936.547927444928,10764.242501764596,0.0,0.0,0.0,2019-03-17T21:26:03.010675,13,EyesClosed
-19684.488437710817,-9651.617366268321,7424.310734785883,-2018.16135861413,28845.775585863066,9461.292262231382,16018.221201684619,10674.544951265449,0.0,0.0,0.0,2019-03-17T21:26:03.018191,13,EyesClosed
-19572.327384034084,-9525.88880370722,7560.142285840784,-1877.2336098234189,28978.433189205312,9413.168956419106,16140.619354321881,10799.37944404834,0.0,0.0,0.0,2019-03-17T21:26:03.024473,13,EyesClosed
-19674.318393983653,-9639.14509286226,7574.8497336923765,-1711.0036863093003,28906.572330781502,9959.043259506614,16072.670051177747,10911.20522155824,0.0,0.0,0.0,2019-03-17T21:26:03.025134,13,EyesClosed
-19799.666976889013,-9774.864885194884,7448.115342630786,-1827.0315917767994,28767.49977678058,10083.006034255748,15940.951221102623,10806.710816229679,0.0,0.0,0.0,2019-03-17T21:26:03.032675,13,EyesClosed
-19720.877077684054,-9689.525924864522,7418.454577738593,-2008.7512741984458,28821.099259984407,9550.542777841423,15990.54974204895,10684.8714572038,0.0,0.0,0.0,2019-03-17T21:26:03.033201,13,EyesClosed
-19585.760782451725,-9539.478664336046,7553.973204371119,-1909.3307148612398,28969.805415845563,9360.642356949134,16130.829290250456,10776.51360947056,0.002,1.02,0.176,2019-03-17T21:26:03.039887,13,EyesClosed
-19654.02301001823,-9620.682551942176,7601.224792149639,-1721.7101719033924,28929.214647914727,9853.095990788459,16093.367766543362,10903.762090654624,0.0,0.0,0.0,2019-03-17T21:26:03.040390,13,EyesClosed
-19792.0226802853,-9768.31582406948,7488.549648350436,-1784.6973877784478,28786.45405607868,10109.448147946376,15961.11249460131,10836.66215379979,0.0,0.0,0.0,2019-03-17T21:26:03.047182,13,EyesClosed
-19743.564098306193,-9714.40341644328,7422.097912084808,-1990.0205123448984,28806.145942943807,9637.535767261477,15979.73149773258,10694.72857650859,0.0,0.0,0.0,2019-03-17T21:26:03.047608,13,EyesClosed
-19600.06589890312,-9562.255091936004,7525.452378446148,-1959.040994529843,28950.046473747072,9308.249867945895,16113.193763875219,10737.353353184862,0.0,0.0,0.0,2019-03-17T21:26:03.055646,13,EyesClosed
-19619.06488169013,-9581.969330545584,7606.432748607725,-1748.1299338495653,28953.57804937101,9739.63853593332,16121.598019790414,10888.942884080754,0.0,0.0,0.0,2019-03-17T21:26:03.056297,13,EyesClosed
-19763.05481947122,-9735.838739375919,7509.828509071888,-1757.271797331786,28808.202303433696,10117.651238161474,15986.682890258182,10860.19854071123,0.0,0.0,0.0,2019-03-17T21:26:03.062389,13,EyesClosed
-19764.68649681646,-9737.358657998879,7408.597458433803,-1974.48604994846,28776.149901884786,9729.222623017147,15956.038648609954,10700.964713211622,0.0,0.0,0.0,2019-03-17T21:26:03.062901,13,EyesClosed
-19607.9784164403,-9570.771106573477,7500.619590356302,-1987.2488960324404,28927.270046147114,9307.22168770095,16097.18991484522,10718.35437039785,0.0,0.0,0.0,2019-03-17T21:26:03.069825,13,EyesClosed
-19595.595550012058,-9558.432943634147,7605.561030573968,-1775.1531928960317,28973.292287980592,9640.530901018488,16144.039171223543,10880.002186298632,0.0,0.0,0.0,2019-03-17T21:26:03.070226,13,EyesClosed
-19745.7098657739,-9712.771739098042,7530.5932796708685,-1731.433180741451,28833.37036769037,10108.33056072361,16014.711977805136,10890.798078870544,0.0,1.026,0.176,2019-03-17T21:26:03.076887,13,EyesClosed
-19783.126685992087,-9753.78719017353,7412.509013713481,-1939.8855495316448,28764.281125579015,9840.489606915666,15948.953145617623,10732.190100215686,0.0,0.0,0.0,2019-03-17T21:26:03.077320,13,EyesClosed
-19643.763559313247,-9602.264714511004,7465.259130628006,-2016.2614603354289,28888.310955561516,9332.970897313464,16064.154036540276,10696.114384664821,0.0,0.0,0.0,2019-03-17T21:26:03.086394,13,EyesClosed
-19589.29235807566,-9540.819769003365,7587.634931520812,-1820.6389928625815,28968.53136641161,9535.276536378447,16137.177185675764,10844.798188781524,0.0,0.0,0.0,2019-03-17T21:26:03.092468,13,EyesClosed
-19728.43196730995,-9693.72805282212,7545.591300200379,-1723.0736283151662,28847.429614952758,10064.31997589111,16025.284352932496,10895.827221372989,0.0,0.0,0.0,2019-03-17T21:26:03.093208,13,EyesClosed
-19802.43859320147,-9770.662757237287,7417.046417837909,-1904.838014225723,28748.344331782384,9930.276564392634,15933.351627987819,10747.232824234108,0.0,0.0,0.0,2019-03-17T21:26:03.099547,13,EyesClosed
-19660.23679497681,-9613.820566394397,7446.908348430199,-2017.6249167472026,28862.7629116491,9386.793897961843,16040.438835673194,10684.044442658955,0.0,0.0,0.0,2019-03-17T21:26:03.100034,13,EyesClosed
-19579.949328893345,-9526.581707785333,7571.429916790715,-1854.5018857123716,28965.580936143513,9442.002706766452,16136.52898508656,10813.863374455379,0.0,0.0,0.0,2019-03-17T21:26:03.107667,13,EyesClosed
-19706.057871110188,-9663.575549551912,7563.629157975813,-1712.0318665542445,28869.535490219056,9992.973207589772,16049.245422988586,10898.889410363367,0.0,0.0,0.0,2019-03-17T21:26:03.108536,13,EyesClosed
-19808.38415722658,-9772.294434582524,7433.094970356819,-1859.4192694925393,28748.478442249114,10000.908076871405,15933.172814032176,10769.629272178325,0.0,0.0,0.0,2019-03-17T21:26:03.115583,13,EyesClosed
-19697.743022172814,-9649.67276450071,7420.957973117587,-2019.7036289815462,28827.581265876444,9439.58871836528,16004.206657911142,10663.033802870967,-0.002,1.018,0.18,2019-03-17T21:26:03.116045,13,EyesClosed
-19587.07953537459,-9531.879071221241,7550.709849680645,-1894.489156542916,28955.81322381654,9355.300290024315,16123.967304702677,10771.08213556792,0.0,0.0,0.0,2019-03-17T21:26:03.122001,13,EyesClosed
-19668.484588680814,-9625.689342700165,7585.556219286468,-1712.9035845880014,28901.76670572361,9903.409767557356,16076.626309946336,10895.648407417346,0.0,0.0,0.0,2019-03-17T21:26:03.122328,13,EyesClosed
-19790.72627910689,-9752.759009928586,7461.6828515151565,-1814.6934288374698,28767.186852358205,10060.698993289352,15949.40018050673,10801.659321982781,0.0,0.0,0.0,2019-03-17T21:26:03.130099,13,EyesClosed
-19730.37656907756,-9687.06723297444,7404.9764758320425,-2020.1953673595629,28801.65324230829,9529.778007242443,15980.178532621687,10663.145561593243,0.0,0.0,0.0,2019-03-17T21:26:03.130607,13,EyesClosed
-19601.854038459547,-9548.754638284998,7520.244421988061,-1951.709622348502,28937.663607318835,9302.036082987319,16109.371615573362,10735.073475250421,0.0,0.0,0.0,2019-03-17T21:26:03.138227,13,EyesClosed
-19658.068675764644,-9609.216107036604,7578.426012805226,-1751.9073786625122,28915.133048907883,9800.547039574032,16092.876028165345,10879.353985709427,0.0,0.0,0.0,2019-03-17T21:26:03.138615,13,EyesClosed
-19797.09652627665,-9755.329460540946,7465.259130628006,-1802.757597298336,28767.343314569393,10085.531781379197,15956.038648609954,10818.646647768814,0.0,0.0,0.0,2019-03-17T21:26:03.145291,13,EyesClosed
-19758.47271185788,-9712.30235246448,7388.346777957294,-2011.9475736555546,28769.064398892453,9628.617421223811,15957.245642810542,10666.92300640619,0.0,0.0,0.0,2019-03-17T21:26:03.151743,13,EyesClosed
-19603.86569546052,-9554.163760443183,7495.881020531777,-1983.9855413419655,28917.01059544213,9283.372376367137,16094.127725854842,10707.893753992767,0.0,0.0,0.0,2019-03-17T21:26:03.152341,13,EyesClosed
-19619.60132355706,-9572.067507751884,7589.713643755155,-1770.4593265604171,28934.936694495285,9699.96418952515,16110.645665007314,10864.937110535755,0.0,1.016,0.18,2019-03-17T21:26:03.160302,13,EyesClosed
-19774.789485310255,-9740.107922566882,7497.222125199095,-1767.888875948057,28788.93509971322,10099.434566430398,15971.997794151044,10843.94882249222,0.0,0.0,0.0,2019-03-17T21:26:03.161009,13,EyesClosed
-19784.490142403858,-9744.421809246756,7387.765632601457,-1982.8232506302895,28748.992532371587,9733.245937019103,15933.373979732274,10680.222294357098,0.0,0.0,0.0,2019-03-17T21:26:03.167770,13,EyesClosed
-19624.563410826137,-9574.548551386422,7472.076412686874,-2007.1643003421188,28897.698688232744,9284.802888012277,16074.413487245261,10684.558532781426,0.0,0.0,0.0,2019-03-17T21:26:03.168260,13,EyesClosed
-19601.362300081528,-9546.295946394916,7588.417242576747,-1794.9344867389784,28954.76269182714,9591.04413879444,16130.091682683431,10848.083895216454,0.0,0.0,0.0,2019-03-17T21:26:03.174995,13,EyesClosed
-19745.911031474,-9698.645436602288,7524.826529601399,-1734.5400732207386,28825.435498408737,10079.47445863181,16009.54872483596,10874.213084484707,0.0,0.0,0.0,2019-03-17T21:26:03.175651,13,EyesClosed
-19790.256892473328,-9751.306146538991,7398.896801340199,-1941.4054681546056,28750.467747505638,9836.220423724702,15937.643162923237,10716.856803519346,0.0,0.0,0.0,2019-03-17T21:26:03.182428,13,EyesClosed
-19654.961783285355,-9601.66121741071,7438.749961704012,-2031.5724052873143,28870.317801274992,9311.647333103101,16047.256117732064,10670.342823307852,0.0,0.0,0.0,2019-03-17T21:26:03.182889,13,EyesClosed
-19591.907512176935,-9534.896556722708,7566.2219603326275,-1844.4883041963942,28957.981343028707,9484.649835187178,16128.303543127007,10818.110205901887,0.0,0.0,0.0,2019-03-17T21:26:03.191052,13,EyesClosed
-19714.08214736964,-9678.43945961469,7540.852730375855,-1733.176616808965,28850.17887952076,10027.797225451139,16029.352370423363,10883.019671800099,0.0,0.0,0.0,2019-03-17T21:26:03.191929,13,EyesClosed
-19793.497895419347,-9759.151608842803,7406.429339221638,-1910.5377090618265,28746.757357926057,9924.666276534352,15933.753959388014,10737.755684585058,-0.002,1.022,0.17200000000000001,2019-03-17T21:26:03.198935,13,EyesClosed
-19671.591481160103,-9620.414331008713,7418.27576378295,-2043.4858850819928,28848.346036475425,9366.207941318506,16028.301838433963,10656.931776634667,0.0,0.0,0.0,2019-03-17T21:26:03.199404,13,EyesClosed
-19591.661642987925,-9532.951954955097,7550.598090958369,-1885.101423871687,28960.90942155235,9394.125270143184,16135.232583908151,10787.04128110901,0.0,0.0,0.0,2019-03-17T21:26:03.205223,13,EyesClosed
-19713.165725846975,-9668.291767631981,7545.703058922656,-1737.468151744384,28869.870766385888,9946.928614011838,16052.531129423516,10878.549322909037,0.0,0.0,0.0,2019-03-17T21:26:03.212067,13,EyesClosed
-19813.122727051108,-9766.84060893543,7418.164005060674,-1864.4037085060727,28753.842860918387,10002.897382127927,15943.856947881814,10767.75172564408,0.0,0.0,0.0,2019-03-17T21:26:03.212720,13,EyesClosed
-19713.501002013803,-9651.416200568223,7397.220420506052,-2029.5383965418812,28824.47437339716,9456.799561595864,16009.571076580416,10658.63050921327,0.0,0.0,0.0,2019-03-17T21:26:03.220110,13,EyesClosed
-19589.001785397744,-9523.072483905851,7526.078227290896,-1909.263659627874,28955.097967993974,9343.431513718548,16132.438615851239,10760.196836018185,0.0,0.0,0.0,2019-03-17T21:26:03.220754,13,EyesClosed
-19665.668268879446,-9609.57373494789,7564.567931242935,-1719.7879218802361,28906.572330781502,9885.595427226475,16088.875065907845,10889.72519513669,0.0,0.0,0.0,2019-03-17T21:26:03.227209,13,EyesClosed
-19804.8749333471,-9763.823123433964,7432.871452912266,-1820.7283998404027,28757.150919097774,10060.363717122522,15946.360343260807,10790.483449755127,0.0,0.0,0.0,2019-03-17T21:26:03.227832,13,EyesClosed
-19735.04808366872,-9684.988520740095,7379.5625423863585,-2020.5753470153031,28789.337431113414,9541.758542270487,15974.21061685212,10650.472122487083,0.0,0.0,0.0,2019-03-17T21:26:03.234586,13,EyesClosed
-19587.25834933023,-9522.267821105459,7500.8878112897655,-1955.643529372636,28933.64029331688,9289.675568303534,16108.18697311723,10717.303838408452,0.0,1.026,0.178,2019-03-17T21:26:03.235085,13,EyesClosed
-19628.720835294826,-9570.949920529118,7575.252065092572,-1742.8325704136575,28926.666549046822,9773.926111927762,16100.9003044248,10867.373450681383,0.0,0.0,0.0,2019-03-17T21:26:03.242777,13,EyesClosed
-19781.517360391303,-9744.131236568837,7459.872360214277,-1784.0044837003331,28774.831148961923,10081.419060399421,15959.100837600332,10812.209345365685,0.0,0.0,0.0,2019-03-17T21:26:03.243591,13,EyesClosed
-19758.070380457688,-9715.230430988126,7367.604359102769,-2000.391721772161,28764.526994768024,9629.690304957665,15949.266070039997,10652.640241699248,0.0,0.0,0.0,2019-03-17T21:26:03.250689,13,EyesClosed
-19593.695651733356,-9532.370809599259,7475.071546443885,-1976.7659278829012,28922.218551900216,9265.759201736355,16096.318196811462,10694.393300341762,0.0,0.0,0.0,2019-03-17T21:26:03.251112,13,EyesClosed
-19600.64704425896,-9542.429094604147,7570.40173654577,-1764.6031695131267,28945.86669753393,9660.62511928381,16126.135423914842,10855.303508675517,0.0,0.0,0.0,2019-03-17T21:26:03.257603,13,EyesClosed
-19757.802159524224,-9714.023436787538,7484.213409926107,-1750.2980530617301,28805.27422491005,10080.547342365664,15998.506963075039,10845.71461030419,0.0,0.0,0.0,2019-03-17T21:26:03.258581,13,EyesClosed
-19771.973165508887,-9727.747407883096,7375.047490006386,-1965.6347591441584,28760.54838425498,9741.31491676747,15954.608136964815,10684.267960103507,0.0,0.0,0.0,2019-03-17T21:26:03.264441,13,EyesClosed
-19626.776233527213,-9570.279368195459,7443.868511184277,-2018.518986525415,28893.697725975246,9267.703803503968,16075.70988842367,10666.788895939457,0.0,0.0,0.0,2019-03-17T21:26:03.272175,13,EyesClosed
-19595.21557035632,-9533.93543171113,7564.344413798382,-1811.6982950804586,28957.958991284253,9548.732286540542,16136.19370891973,10825.888612972334,0.0,0.0,0.0,2019-03-17T21:26:03.272654,13,EyesClosed
-19738.870231970577,-9689.235352186603,7506.140471236762,-1741.6702797019816,28828.676501354756,10047.17618789389,16016.053082472454,10856.599909853925,0.0,1.026,0.184,2019-03-17T21:26:03.280245,13,EyesClosed
-19780.69034584646,-9736.486939965122,7389.173792502141,-1928.4414563705275,28755.474538263625,9843.28357497258,15947.992020606045,10710.061873204932,0.0,0.0,0.0,2019-03-17T21:26:03.280770,13,EyesClosed
-19643.294172679685,-9583.04221427944,7429.6304499662465,-2025.000992417454,28875.23518505516,9310.395635413604,16058.409638215262,10657.937605135156,0.0,0.0,0.0,2019-03-17T21:26:03.287008,13,EyesClosed
-19585.425506284893,-9526.671114763156,7548.698192679667,-1848.0645833092433,28961.892898308386,9445.53428239039,16139.322953143474,10796.049034124499,0.0,0.0,0.0,2019-03-17T21:26:03.287800,13,EyesClosed
-19713.925685158454,-9670.236369399592,7522.792520855966,-1726.8287213836577,28856.77264413508,9994.850754124016,16043.8363008304,10865.987642525155,0.0,0.0,0.0,2019-03-17T21:26:03.294894,13,EyesClosed
-19789.608691884125,-9752.379030272847,7395.812260605367,-1888.9682756624552,28754.78163418551,9930.164805670358,15946.9638403611,10731.564251370937,0.0,0.0,0.0,2019-03-17T21:26:03.295416,13,EyesClosed
-19672.37379221604,-9618.80500540793,7399.030911806931,-2035.8192367338227,28848.74836787562,9366.565569229791,16033.308629191952,10641.062038071399,0.0,0.0,0.0,2019-03-17T21:26:03.303425,13,EyesClosed
-19581.603357983036,-9517.238678603015,7526.569965668913,-1892.8351274532233,28963.926907053818,9359.435362748547,16140.775816533069,10760.956795329666,0.0,0.0,0.0,2019-03-17T21:26:03.304177,13,EyesClosed
-19690.255187780283,-9633.71361895962,7535.622422173313,-1738.1610558224984,28881.873653158385,9913.848032217984,16067.976184842133,10861.606700611914,0.0,0.0,0.0,2019-03-17T21:26:03.310296,13,EyesClosed
-19802.572703668204,-9752.602547717399,7405.982304332531,-1864.8060399062683,28751.339465539393,9984.010158063193,15941.442959480639,10743.723600354624,0.0,0.0,0.0,2019-03-17T21:26:03.311091,13,EyesClosed
-19708.181286833442,-9648.5775290224,7382.17769648763,-2038.032059434898,28814.930178514744,9436.146549719162,15997.814058996924,10624.25352624101,-0.002,1.022,0.182,2019-03-17T21:26:03.317882,13,EyesClosed
-19576.663622458414,-9499.424338272136,7517.8527853313435,-1923.6134795681812,28956.617886616932,9303.690112077013,16131.365732117383,10727.786806557991,0.0,0.0,0.0,2019-03-17T21:26:03.318554,13,EyesClosed
-19656.839329819602,-9587.020824792484,7555.269605549527,-1736.305861032708,28909.478057560693,9828.173795720792,16089.590321730415,10856.666965087292,0.0,0.0,0.0,2019-03-17T21:26:03.324842,13,EyesClosed
-19792.78263959678,-9742.678373179242,7425.093045841819,-1823.9917545308776,28760.34721855488,10030.993524908248,15950.9648026186,10768.444629722195,0.0,0.0,0.0,2019-03-17T21:26:03.325715,13,EyesClosed
-19727.62730450956,-9673.76794502353,7365.011556745953,-2028.2643471079289,28785.671745022744,9529.442731075613,15974.188265107665,10626.153424519709,0.0,0.0,0.0,2019-03-17T21:26:03.332965,13,EyesClosed
-19580.418715526906,-9517.015161158462,7482.268808158495,-1972.1167650361974,28932.276836905105,9251.543492262781,16109.9527609292,10687.97834968309,0.0,0.0,0.0,2019-03-17T21:26:03.339985,13,EyesClosed
-19614.39336709897,-9568.200655961116,7559.047050362475,-1759.9093031775121,28932.16507818283,9719.857242090375,16113.126708641854,10844.172339936775,0.0,0.0,0.0,2019-03-17T21:26:03.340721,13,EyesClosed
-19775.48238938837,-9732.620088174353,7450.66344149869,-1786.9549139684336,28784.710620011167,10059.871978744504,15977.362212820319,10803.693330728214,0.0,0.0,0.0,2019-03-17T21:26:03.347249,13,EyesClosed
-19756.99749672383,-9710.58126814142,7366.8220480468335,-1994.8708408917,28773.87002395034,9639.48036902909,15966.119285359298,10649.958032364611,0.0,0.0,0.0,2019-03-17T21:26:03.347774,13,EyesClosed
-19601.0270239147,-9539.635126547233,7463.605101538313,-1992.255686790429,28924.319615879016,9243.407457281048,16106.644702749814,10674.388489054261,0.0,0.0,0.0,2019-03-17T21:26:03.355286,13,EyesClosed
-19598.948311680357,-9531.253222376494,7564.746745198578,-1782.1492889105427,28958.54013664009,9612.457109982624,16140.820520021978,10833.175281664764,0.002,1.024,0.186,2019-03-17T21:26:03.356057,13,EyesClosed
-19740.412502337993,-9691.291712676491,7494.741081564556,-1747.3252710491743,28830.196419977718,10060.85545550054,16022.624495342316,10839.657287556802,0.0,0.0,0.0,2019-03-17T21:26:03.365727,13,EyesClosed
-19762.540729348748,-9708.077872762427,7386.6033418897805,-1954.458886916505,28782.609556032367,9751.842588405918,15975.886997686268,10682.233951358076,0.0,0.0,0.0,2019-03-17T21:26:03.366575,13,EyesClosed
-19616.673245033413,-9549.93928074113,7450.417572309682,-2014.3168585678172,28912.24967387315,9268.8884459601,16093.770097943558,10660.798628425435,0.0,0.0,0.0,2019-03-17T21:26:03.371835,13,EyesClosed
-19584.35262255104,-9517.730416981032,7556.633061961301,-1820.683696351492,28970.118340267938,9511.673094233643,16146.073179968977,10806.867278440866,0.0,0.0,0.0,2019-03-17T21:26:03.372677,13,EyesClosed
-19719.647731739013,-9670.795163010975,7507.481575904081,-1736.015288354789,28843.719225373177,10024.13153936047,16028.0336175005,10845.982831237654,0.0,0.0,0.0,2019-03-17T21:26:03.378308,13,EyesClosed
-19767.90514801802,-9727.702704394187,7391.7665948589565,-1914.941002719522,28762.962372656155,9847.262185485624,15951.121264829788,10697.634303287781,0.0,0.0,0.0,2019-03-17T21:26:03.379021,13,EyesClosed
-19630.911306251444,-9580.829391578363,7427.037647609431,-2019.8824429371887,28877.693876945246,9309.009827257374,16057.113237036854,10638.335125247851,0.0,0.0,0.0,2019-03-17T21:26:03.385995,13,EyesClosed
-19557.48582571576,-9502.531230751423,7556.454248005659,-1841.64963265057,28977.002677560173,9424.903622258142,16148.442464881238,10780.0451850945,0.0,0.0,0.0,2019-03-17T21:26:03.386815,13,EyesClosed
-19689.85285638009,-9644.487159787079,7535.39890472876,-1718.4244654684624,28873.55880422101,9976.008233548193,16054.252213746575,10854.543549364036,0.0,0.0,0.0,2019-03-17T21:26:03.392514,13,EyesClosed
-19783.797238325744,-9745.4499894917,7399.455594951582,-1886.6436942391033,28758.11204410935,9929.784826014618,15946.1144740718,10714.554573840449,0.002,1.018,0.186,2019-03-17T21:26:03.399619,13,EyesClosed
-19669.155141014475,-9620.324924030892,7392.817126848356,-2042.7035740260571,28843.786280606542,9366.409107018604,16026.670161088725,10616.005732537,0.0,0.0,0.0,2019-03-17T21:26:03.400413,13,EyesClosed
-19569.555767721627,-9509.013236643463,7522.144320266762,-1906.9167264600667,28968.821939089532,9330.489853678924,16142.899232256323,10732.16774847123,0.0,0.0,0.0,2019-03-17T21:26:03.407760,13,EyesClosed
-19668.194016002897,-9614.37936000578,7533.051971560953,-1741.4691140018838,28898.01161265512,9879.985139368193,16079.576740214437,10840.305488146007,0.0,0.0,0.0,2019-03-17T21:26:03.408394,13,EyesClosed
-19788.91578780601,-9746.277004036547,7397.667455395157,-1860.9168363710448,28761.889488922297,9986.938236586839,15953.870529397791,10733.59826011637,0.0,0.0,0.0,2019-03-17T21:26:03.415732,13,EyesClosed
-19705.633187965537,-9652.399677324258,7360.675318321624,-2046.1680944166299,28816.293634926515,9445.82485506831,16005.436003856184,10609.546078389416,0.0,0.0,0.0,2019-03-17T21:26:03.416426,13,EyesClosed
-19577.60239572554,-9505.325198808338,7490.136622206763,-1946.2557967014072,28960.77531108562,9271.727117505923,16138.42888336526,10699.400091099751,0.0,0.0,0.0,2019-03-17T21:26:03.423621,13,EyesClosed
-19646.669286092438,-9584.47272592458,7539.913957108732,-1752.0861926181547,28926.845363002463,9787.068937667482,16108.455194050694,10833.689371787235,0.0,0.0,0.0,2019-03-17T21:26:03.424455,13,EyesClosed
-19779.39394466805,-9737.760989399076,7424.534252230436,-1820.3707719291178,28788.17514040174,10030.926469674881,15981.027898910988,10766.432972721217,0.0,0.0,0.0,2019-03-17T21:26:03.431837,13,EyesClosed
-19735.450415068917,-9681.501648605066,7352.6733938066245,-2035.6180710337248,28797.249948650595,9538.74105676902,15988.962768192623,10616.363360448286,0.0,0.0,0.0,2019-03-17T21:26:03.432689,13,EyesClosed
-19590.275834831697,-9522.893669950208,7461.928720704165,-1994.4461577470493,28939.20587768625,9232.276288542305,16119.966342445177,10668.487628518062,0.002,1.02,0.186,2019-03-17T21:26:03.438406,13,EyesClosed
-19629.994884728778,-9560.04226923493,7537.902300107754,-1782.0598819327215,28937.998883485663,9678.461811359146,16123.162641902287,10823.385217593339,0.0,0.0,0.0,2019-03-17T21:26:03.439155,13,EyesClosed
-19785.361860437617,-9727.412131716268,7434.100798857307,-1798.1531379405426,28786.543463056503,10035.508577288221,15981.989023922566,10785.230789808129,0.0,0.0,0.0,2019-03-17T21:26:03.445658,13,EyesClosed
-19761.087865959154,-9701.908791292763,7345.431428603105,-2000.1235008386973,28768.41619830325,9641.737895219076,15962.207730079619,10630.512014688495,0.0,0.0,0.0,2019-03-17T21:26:03.446319,13,EyesClosed
-19597.31663433512,-9523.765387983965,7448.361211819793,-1999.5647072273146,28920.765688510623,9234.422056010015,16103.291941081518,10652.662593443703,0.0,0.0,0.0,2019-03-17T21:26:03.452103,13,EyesClosed
-19594.857942445033,-9528.593364786311,7558.5329602400025,-1786.0384924457662,28963.03283727561,9580.829391578363,16144.642668323837,10811.985827921133,0.0,0.0,0.0,2019-03-17T21:26:03.459906,13,EyesClosed
-19751.23074665436,-9699.181878469215,7481.039462213453,-1755.7071752199145,28820.294597184016,10029.965344663304,16010.308684147441,10810.488261042627,0.0,0.0,0.0,2019-03-17T21:26:03.460662,13,EyesClosed
-19773.761305065313,-9721.243050246603,7364.855094534767,-1967.0876225337533,28756.323904552926,9740.107922566882,15947.187357805653,10643.923061361678,0.0,0.0,0.0,2019-03-17T21:26:03.468139,13,EyesClosed
-19623.9822654703,-9558.254129678504,7431.9773831340535,-2026.0738761513087,28898.86097894442,9249.420076539525,16076.961586113166,10624.119415774276,0.0,0.0,0.0,2019-03-17T21:26:03.468816,13,EyesClosed
-19573.221453812297,-9508.45444303208,7562.220998075128,-1823.5670713862266,28984.937546841807,9476.15617229416,16156.734962074157,10783.33089152943,0.0,0.0,0.0,2019-03-17T21:26:03.475266,13,EyesClosed
-19718.016054393775,-9661.67565127321,7512.220145728606,-1740.2844715457527,28856.884402857355,9993.397890734423,16038.918917050234,10822.424092581761,0.002,1.026,0.192,2019-03-17T21:26:03.476028,13,EyesClosed
-19784.378383681582,-9731.077817806938,7378.646120863691,-1928.910843004089,28760.950715655177,9837.874452814396,15949.53429097346,10669.716974463103,0.0,0.0,0.0,2019-03-17T21:26:03.482724,13,EyesClosed
-19645.149367469476,-9592.921685328685,7403.590667675814,-2043.3294228708057,28870.496615230637,9284.936998479008,16051.860577089856,10599.28662768443,0.0,0.0,0.0,2019-03-17T21:26:03.483360,13,EyesClosed
-19555.138892547955,-9497.345626037792,7545.568948455924,-1863.0626038387543,28983.082352052017,9375.95330190102,16159.506578386616,10744.8858910663,0.0,0.0,0.0,2019-03-17T21:26:03.490854,13,EyesClosed
-19684.913120855468,-9622.560098476422,7529.319230236916,-1728.1251225620656,28882.454798514224,9931.3941516154,16070.926615110233,10827.989676951132,0.0,0.0,0.0,2019-03-17T21:26:03.491560,13,EyesClosed
-19773.560139365214,-9723.589983414411,7398.740339129012,-1875.8925051561005,28766.27043083554,9924.576869556531,15961.805398679424,10702.998721957056,0.0,0.0,0.0,2019-03-17T21:26:03.497795,13,EyesClosed
-19657.889861809,-9602.510583700012,7393.085347781819,-2028.1525883856523,28846.110862029895,9370.320662298282,16037.287239704996,10604.986322520534,0.0,0.0,0.0,2019-03-17T21:26:03.498476,13,EyesClosed
-19542.599563908527,-9477.54198045039,7529.4756924481035,-1890.9352291745222,28977.96380257175,9315.491833149414,16164.826293566979,10726.848033290868,0.0,0.0,0.0,2019-03-17T21:26:03.505385,13,EyesClosed
-19643.11535872404,-9588.496039926535,7543.8031606439545,-1729.1533028070096,28904.493618547156,9860.717935647719,16102.867257936867,10838.182072422753,0.0,0.0,0.0,2019-03-17T21:26:03.506092,13,EyesClosed
-19760.19379618094,-9710.022474530038,7417.962839360576,-1835.8828825811008,28772.573622771935,10000.148117559924,15978.479800043084,10739.677934608215,0.0,0.0,0.0,2019-03-17T21:26:03.512319,13,EyesClosed
-19678.833446363624,-9614.826394894886,7375.382766173216,-2022.5870040162808,28821.590998362422,9466.544922178378,16020.45637613015,10609.501374900507,0.002,1.024,0.188,2019-03-17T21:26:03.520180,13,EyesClosed
-19557.932860604866,-9482.30290201937,7490.181325695673,-1948.647433358125,28956.751997083666,9248.995393394875,16143.10039795642,10680.244646101553,0.0,0.0,0.0,2019-03-17T21:26:03.520842,13,EyesClosed
-19621.992960213778,-9559.08114422335,7541.880910620798,-1756.82476244268,28923.403194356346,9744.31005052448,16113.126708641854,10811.851717454401,0.0,0.0,0.0,2019-03-17T21:26:03.527398,13,EyesClosed
-19758.04802871323,-9708.927239051729,7428.915194143677,-1810.9606875134334,28784.21888163315,10014.207364822312,15983.30777684543,10750.719696369135,0.0,0.0,0.0,2019-03-17T21:26:03.528191,13,EyesClosed
-19716.026749137254,-9664.000232696562,7350.102943194264,-2019.033076647887,28790.544425314,9538.003449201995,15985.945282691157,10597.252618938997,0.0,0.0,0.0,2019-03-17T21:26:03.534828,13,EyesClosed
-19563.140817062955,-9496.987998126508,7463.783915493956,-1981.2809802628733,28941.038720731583,9211.10918654313,16123.788490747034,10643.543081705939,0.0,0.0,0.0,2019-03-17T21:26:03.535509,13,EyesClosed
-19586.87836967449,-9521.93254493863,7552.743858426078,-1768.045338159244,28954.40506391586,9644.420104553712,16139.255897910107,10800.8993626713,0.0,0.0,0.0,2019-03-17T21:26:03.542619,13,EyesClosed
-19737.08209241415,-9682.574532338922,7459.984118936553,-1771.979245183378,28811.488009868626,10028.870109184994,16005.324245133907,10776.51360947056,0.0,0.0,0.0,2019-03-17T21:26:03.543070,13,EyesClosed
-19745.016961695786,-9687.15663995226,7355.132085696708,-1992.5686112128035,28775.434646062215,9641.96141266363,15966.029878381478,10608.942581289122,0.0,0.0,0.0,2019-03-17T21:26:03.550526,13,EyesClosed
-19581.82687542759,-9510.466100033058,7449.56820602038,-2005.3761607856943,28926.82301125801,9218.909945358033,16106.912923683278,10621.951296562112,0.0,0.0,0.0,2019-03-17T21:26:03.551001,13,EyesClosed
-19568.52758747668,-9500.050187116884,7551.715678181134,-1802.8693560206123,28970.475968179224,9538.204614902093,16148.867148025889,10775.396022247794,0.0,1.016,0.188,2019-03-17T21:26:03.557264,13,EyesClosed
-19726.42031030897,-9667.040069942483,7477.507886589514,-1759.3952130550401,28831.71633860068,10004.260838539702,16021.909239519746,10785.253141552585,0.0,0.0,0.0,2019-03-17T21:26:03.557655,13,EyesClosed
-19768.57570035168,-9708.927239051729,7355.109733952253,-1965.8135730998008,28758.9390586542,9742.588966201421,15952.238852052553,10622.443034940128,0.0,0.0,0.0,2019-03-17T21:26:03.566787,13,EyesClosed
-19617.813184000635,-9549.872225507765,7412.240792780018,-2038.2108733905404,28889.04856312854,9238.400666523059,16073.027679089033,10591.396461891707,0.0,0.0,0.0,2019-03-17T21:26:03.567262,13,EyesClosed
-19559.206910038818,-9492.629407957722,7542.01502108753,-1841.2473012503747,28976.041552548595,9434.20194795155,16157.696087085735,10748.149245756775,0.0,0.0,0.0,2019-03-17T21:26:03.572987,13,EyesClosed
-19700.76050767428,-9644.665973742722,7503.950000280142,-1742.2514250578197,28858.538431947047,9968.11806775547,16053.84988234638,10803.46981328366,0.0,0.0,0.0,2019-03-17T21:26:03.573367,13,EyesClosed
-19780.48918014636,-9726.048675304493,7372.521742882936,-1921.646526056114,28761.442454033193,9849.497359931154,15962.095971357343,10658.474047002084,0.0,0.0,0.0,2019-03-17T21:26:03.580599,13,EyesClosed
-19655.051190263177,-9590.194772505138,7387.5421151569035,-2046.3916118611828,28863.14289130484,9294.704710805978,16056.621498658837,10582.18754317612,0.0,0.0,0.0,2019-03-17T21:26:03.586896,13,EyesClosed
-19562.224395540285,-9494.484602747512,7520.803215599444,-1882.5309732593266,28975.10277928147,9345.644336419624,16162.926395288277,10716.275658163508,0.0,0.0,0.0,2019-03-17T21:26:03.587640,13,EyesClosed
-19687.349461001097,-9627.969220634606,7512.15309049524,-1748.0852303606548,28879.10203684593,9893.44088953029,16075.79929540149,10801.212287093675,0.0,0.0,0.0,2019-03-17T21:26:03.595210,13,EyesClosed
-19795.330738464683,-9739.772646400053,7378.176734230129,-1891.7175402304579,28756.279201064015,9914.25036361818,15960.956032390122,10675.997814655044,0.004,1.022,0.184,2019-03-17T21:26:03.596142,13,EyesClosed
-19676.03947830671,-9612.680627427177,7371.9853010160095,-2044.4917135824817,28840.880553827355,9364.66567095109,16040.572946139926,10576.04081345091,0.0,0.0,0.0,2019-03-17T21:26:03.604619,13,EyesClosed
-19557.552880949126,-9487.600265455278,7509.806157327433,-1915.6786102865472,28978.053209549573,9276.26452163035,16165.563901134003,10687.73248049408,0.0,0.0,0.0,2019-03-17T21:26:03.605316,13,EyesClosed
-19643.9870767578,-9576.18022873166,7545.188968800184,-1731.5225877192722,28926.934769980286,9822.049417740038,16120.368673845373,10813.61750526637,0.0,0.0,0.0,2019-03-17T21:26:03.610895,13,EyesClosed
-19784.53484589277,-9728.239146261114,7415.6606096816795,-1829.9596703004445,28784.196529888693,9985.708890641796,15988.336919347874,10717.035617474989,0.0,0.0,0.0,2019-03-17T21:26:03.611541,13,EyesClosed
-19711.75756594629,-9645.850616198852,7369.3477951702835,-2020.1953673595629,28824.586132119435,9465.427334955613,16026.513698877538,10583.014557720966,0.0,0.0,0.0,2019-03-17T21:26:03.617889,13,EyesClosed
-19574.473151501796,-9492.808221913365,7490.494250118048,-1946.322851934773,28970.699485623776,9235.696105443967,16160.62416560938,10660.038669113956,0.0,0.0,0.0,2019-03-17T21:26:03.618531,13,EyesClosed
-19631.380692885006,-9558.70116456761,7552.96737587063,-1749.1581140945095,28949.666494091332,9725.646343904298,16140.619354321881,10803.55922026148,0.0,0.0,0.0,2019-03-17T21:26:03.626028,13,EyesClosed
-19771.503778875325,-9713.06231177596,7442.862682683788,-1796.8120332732242,28804.447210365204,10018.968286391293,16003.133774177288,10745.042353277488,0.0,0.0,0.0,2019-03-17T21:26:03.626668,13,EyesClosed
-19749.509662331304,-9681.00991022705,7352.136951939697,-2020.128312126197,28790.969108458652,9557.672984322666,15990.192114137664,10581.09230769781,0.0,0.0,0.0,2019-03-17T21:26:03.633939,13,EyesClosed
-19596.601378512547,-9514.802338457386,7462.33105210436,-1992.8591838907223,28942.469232376723,9208.046997552752,16133.220926907174,10622.48773842904,0.0,0.0,0.0,2019-03-17T21:26:03.634636,13,EyesClosed
-19606.324387350607,-9535.567109056366,7556.253082305561,-1780.562315054216,28962.7869680866,9612.926496616185,16153.225738194675,10778.592321704904,0.002,1.022,0.186,2019-03-17T21:26:03.639976,13,EyesClosed
-19748.123854175075,-9690.554105109466,7472.322281875883,-1770.012291671311,28824.384966419337,10019.92941140287,16024.524393621015,10766.70119365468,0.0,0.0,0.0,2019-03-17T21:26:03.647329,13,EyesClosed
-19755.745799034336,-9689.794145797987,7368.163152714152,-1981.39273898515,28786.31994561195,9666.973014709118,15986.59348328036,10607.869697555268,0.0,0.0,0.0,2019-03-17T21:26:03.647979,13,EyesClosed
-19600.177657625398,-9516.679884991632,7445.790761207433,-2015.7920737018674,28928.275874647603,9215.91481160102,16117.32883659945,10609.34491268932,0.0,0.0,0.0,2019-03-17T21:26:03.655430,13,EyesClosed
-19576.35069803604,-9495.579838225824,7557.25891080605,-1814.648725348559,28979.237852005703,9507.448614531591,16167.039116268053,10766.097696554387,0.0,0.0,0.0,2019-03-17T21:26:03.656180,13,EyesClosed
-19730.33186558865,-9665.318985619424,7489.153145450729,-1761.2280561003754,28839.807670093498,9990.089832555037,16038.136605994297,10786.214266564164,0.0,0.0,0.0,2019-03-17T21:26:03.662456,13,EyesClosed
-19772.15197946453,-9714.761044354564,7371.180638215618,-1957.7222416069797,28767.9915151586,9760.135085598837,15967.505093515527,10635.742322891036,0.0,0.0,0.0,2019-03-17T21:26:03.663358,13,EyesClosed
-19626.843288760578,-9551.79447553092,7428.6916766991235,-2035.3274983558058,28899.308013833528,9241.172282835518,16087.690423451713,10602.415871908173,0.0,0.0,0.0,2019-03-17T21:26:03.670500,13,EyesClosed
-19569.77928516618,-9492.271780046438,7552.632099703801,-1851.752621144369,28982.702372396277,9399.534392301368,16164.647479611336,10748.08219052341,0.0,0.0,0.0,2019-03-17T21:26:03.671121,13,EyesClosed
-19699.08412684013,-9631.43374102518,7528.469863947615,-1732.4613609863952,28878.587946723455,9945.989840744716,16066.568024941449,10817.529060546049,0.0,0.0,0.0,2019-03-17T21:26:03.678225,13,EyesClosed
-19773.806008554224,-9713.598753642887,7403.925943842643,-1895.3385228322177,28777.78157923002,9857.454580957245,15968.175645849187,10680.06583214591,0.002,1.028,0.178,2019-03-17T21:26:03.679129,13,EyesClosed
-19642.51186162375,-9569.117077483783,7423.975458619054,-2021.5141202824261,28877.33624903396,9303.287780676816,16060.823626616435,10601.253581196497,0.0,0.0,0.0,2019-03-17T21:26:03.686164,13,EyesClosed
-19548.053389555622,-9472.266968758937,7562.69038470869,-1863.3978800055838,28990.838407378007,9326.801815843799,16166.43561916776,10733.26298394954,0.0,0.0,0.0,2019-03-17T21:26:03.686844,13,EyesClosed
-19668.953975314376,-9606.735063402064,7561.729259697111,-1714.0211718107669,28901.453781301236,9878.308758534045,16085.455249006183,10828.392008351328,0.0,0.0,0.0,2019-03-17T21:26:03.692803,13,EyesClosed
-19779.86333130161,-9717.107977522372,7431.195072078118,-1849.3162809987405,28773.199471616685,9927.259078891168,15964.956994647622,10711.961771483633,0.0,0.0,0.0,2019-03-17T21:26:03.693527,13,EyesClosed
-19675.03364980622,-9601.169479032693,7414.028932336442,-2018.7201522255127,28844.345074217927,9376.936778657053,16032.526318136015,10604.874563798257,0.0,0.0,0.0,2019-03-17T21:26:03.699854,13,EyesClosed
-19544.074779042578,-9461.448724442569,7549.0781723354075,-1900.5688310347596,28984.82578811953,9261.98175692341,16164.602776122425,10714.576925584905,0.0,0.0,0.0,2019-03-17T21:26:03.707793,13,EyesClosed
-19630.956009740356,-9559.192902945626,7575.944969170687,-1723.5653666931828,28924.856057745943,9786.353681844912,16110.153926629297,10834.695200287724,0.0,0.0,0.0,2019-03-17T21:26:03.708552,13,EyesClosed
-19764.99942123883,-9699.561858124955,7447.690659486135,-1811.07244623571,28780.6426025203,9978.846905094017,15975.886997686268,10746.852844578367,0.0,0.0,0.0,2019-03-17T21:26:03.715715,13,EyesClosed
-19705.387318776528,-9622.224822309592,7393.979417560032,-2004.0127043739205,28815.064288981474,9474.859771115753,16007.470012601616,10614.463462169584,0.0,0.0,0.0,2019-03-17T21:26:03.716502,13,EyesClosed
-19569.622822954992,-9480.179486296116,7509.090901504863,-1940.0420117428318,28958.04839826207,9212.472642954903,16141.401665377816,10682.189247869164,0.002,1.03,0.182,2019-03-17T21:26:03.722381,13,EyesClosed
-19609.721852507813,-9528.615716530767,7581.242332606595,-1730.2485382853197,28948.81712780203,9690.889381276296,16134.696142041224,10834.650496798813,0.0,0.0,0.0,2019-03-17T21:26:03.723086,13,EyesClosed
-19752.884775744056,-9680.205247426658,7472.724613276078,-1764.8713904465903,28800.915634741265,10012.64274271044,15998.194038652664,10786.236618308618,0.0,0.0,0.0,2019-03-17T21:26:03.730164,13,EyesClosed
-19736.836223225146,-9658.345241349369,7380.389556931205,-1985.0137215869097,28785.42587583374,9575.241455464537,15981.0726023999,10626.220479753076,0.0,0.0,0.0,2019-03-17T21:26:03.730712,13,EyesClosed
-19582.0727446166,-9486.929713121619,7485.621569826791,-1972.4743929474823,28940.122299208917,9201.028549793786,16124.079063424953,10662.854988915324,0.0,0.0,0.0,2019-03-17T21:26:03.738245,13,EyesClosed
-19590.54405576516,-9495.289265547905,7579.342434327893,-1764.6031695131267,28966.430302432815,9581.812868334398,16151.48230212716,10821.66413327028,0.0,0.0,0.0,2019-03-17T21:26:03.738989,13,EyesClosed
-19738.222031381374,-9663.91082571874,7495.188116453662,-1745.7159454483922,28822.485068140635,10008.820594408584,16021.529259864004,10816.344418089917,0.0,0.0,0.0,2019-03-17T21:26:03.745506,13,EyesClosed
-19753.801197266723,-9686.195514940682,7385.530458155926,-1958.5269044073707,28773.22182336114,9677.612445069844,15975.551721519438,10656.663555701203,0.0,0.0,0.0,2019-03-17T21:26:03.746211,13,EyesClosed
-19611.621750786515,-9529.375675842248,7454.910272945199,-2004.8620706632223,28908.807505227032,9204.426014950994,16100.296807324507,10642.716067161093,0.0,0.0,0.0,2019-03-17T21:26:03.753034,13,EyesClosed
-19584.084401617576,-9495.713948692555,7569.328852811916,-1799.9189257525118,28973.046418791586,9474.479791460013,16160.892386542844,10797.52424925855,0.0,0.0,0.0,2019-03-17T21:26:03.753854,13,EyesClosed
-19723.313417829682,-9645.023601654006,7515.215279485617,-1723.4759597153616,28848.07781554196,9980.523285928164,16043.36691419684,10830.202499652207,0.0,1.026,0.176,2019-03-17T21:26:03.760092,13,EyesClosed
-19775.638851599557,-9699.897134291785,7394.493507682504,-1914.4045608525946,28767.633887247313,9779.446992808222,15962.073619612887,10675.975462910588,0.0,0.0,0.0,2019-03-17T21:26:03.767839,13,EyesClosed
-19636.74511155428,-9545.357173127792,7436.224214580562,-2012.9086986671327,28887.23807182766,9244.457989270448,16073.251196533585,10621.727779117558,0.0,0.0,0.0,2019-03-17T21:26:03.768493,13,EyesClosed
-19568.415828754405,-9468.891855346186,7568.770059200533,-1829.4232284335171,28987.485645709712,9379.32841531377,16169.386049435861,10768.824609377934,0.0,0.0,0.0,2019-03-17T21:26:03.775026,13,EyesClosed
-19701.207542563385,-9618.38032226328,7539.958660597642,-1713.7529508773032,28876.799807167034,9920.464148576755,16066.120990052343,10833.398799109316,0.0,0.0,0.0,2019-03-17T21:26:03.775839,13,EyesClosed
-19784.33368019267,-9713.107015264872,7408.306885755884,-1877.9041621570782,28768.617364003345,9859.756810636141,15964.48760801406,10696.561419553927,0.0,0.0,0.0,2019-03-17T21:26:03.782591,13,EyesClosed
-19676.352402729084,-9592.742871373042,7401.13197578573,-2037.6297280347023,28846.580248663457,9285.652254301578,16034.895603048279,10594.816278793369,0.0,0.0,0.0,2019-03-17T21:26:03.783528,13,EyesClosed
-19570.673354944392,-9479.911265362653,7535.2871460064825,-1892.7680722198575,28970.565375157046,9277.337405364206,16150.38706664885,10718.577887842404,0.0,0.0,0.0,2019-03-17T21:26:03.790587,13,EyesClosed
-19674.676021894935,-9596.341502230347,7547.938233368187,-1730.784980152247,28898.503351033134,9834.23111846818,16085.969339128655,10825.620392038869,0.0,0.0,0.0,2019-03-17T21:26:03.791256,13,EyesClosed
-19795.129572764585,-9723.478224692133,7417.180528304641,-1858.74871715888,28763.543518011993,9913.825680473528,15959.167892833699,10709.748948782559,0.0,0.0,0.0,2019-03-17T21:26:03.797995,13,EyesClosed
-19702.436888508426,-9627.253964812036,7390.55960065837,-2034.3663733442277,28825.569608875467,9373.516961755391,16016.880097017302,10593.43047063714,0.0,1.022,0.17400000000000002,2019-03-17T21:26:03.798737,13,EyesClosed
-19575.993070124754,-9490.573047467835,7520.15501501024,-1927.5026831034045,28966.54206115509,9227.023628595309,16149.783569548557,10695.01914918651,0.0,0.0,0.0,2019-03-17T21:26:03.805390,13,EyesClosed
-19650.849062305577,-9568.602987361312,7562.466867264136,-1737.5352069777498,28922.44206934477,9752.826065161951,16110.310388840484,10826.246240883618,0.0,0.0,0.0,2019-03-17T21:26:03.806177,13,EyesClosed
-19786.077116260185,-9710.804785585975,7435.553662246903,-1819.946088784467,28777.84863446339,9969.570931145065,15972.131904617776,10742.091923009388,0.0,0.0,0.0,2019-03-17T21:26:03.813300,13,EyesClosed
-19724.09572888562,-9646.297651087958,7378.042623763397,-2019.3012975813506,28805.721259799157,9475.999710082973,15998.015224697021,10604.315770186875,0.0,0.0,0.0,2019-03-17T21:26:03.814032,13,EyesClosed
-19586.185465596376,-9501.056015617372,7489.130793706274,-1968.518134178893,28952.281648192606,9190.00913977732,16138.942973487732,10669.024070384989,0.0,0.0,0.0,2019-03-17T21:26:03.820467,13,EyesClosed
-19625.770405026724,-9545.84891150581,7562.891550408787,-1762.591512512149,28950.471156891723,9646.588223765877,16140.284078155051,10822.021761181566,0.0,0.0,0.0,2019-03-17T21:26:03.821169,13,EyesClosed
-19767.011078239808,-9692.431651643712,7467.114325417796,-1780.1152801651099,28811.800934291,9996.951818102816,16011.493326603571,10789.656435210281,0.0,0.0,0.0,2019-03-17T21:26:03.827759,13,EyesClosed
-19746.067493685186,-9668.67174728772,7379.115507497252,-1997.5977537152476,28794.79125676051,9577.811906076897,15992.606102538837,10633.171872278675,0.0,0.0,0.0,2019-03-17T21:26:03.834938,13,EyesClosed
-19602.25636985974,-9529.733303753532,7468.589540551847,-2006.1361200971749,28934.02027297262,9171.747764557334,16120.480432567649,10648.616927697292,0.0,0.0,0.0,2019-03-17T21:26:03.835837,13,EyesClosed
-19600.937616936877,-9529.152158397694,7574.536809270002,-1789.9947512143556,28971.861776335452,9537.891690479719,16156.712610329701,10808.208383108185,0.002,1.024,0.17400000000000002,2019-03-17T21:26:03.843463,13,EyesClosed
-19751.47661584337,-9686.77666029652,7492.014168741009,-1759.2163990993977,28831.42576592276,9983.83134410755,16024.546745365471,10803.738034217124,0.0,0.0,0.0,2019-03-17T21:26:03.844140,13,EyesClosed
-19767.68163057347,-9698.734843580109,7376.8579813072665,-1962.9972532984323,28778.630945519322,9680.942854993684,15972.645994740249,10643.386619494751,0.0,0.0,0.0,2019-03-17T21:26:03.850831,13,EyesClosed
-19614.236904887784,-9540.484492836535,7449.121171131274,-2010.7629311994233,28917.547037309057,9196.044110780253,16101.213228847175,10625.549927419415,0.0,0.0,0.0,2019-03-17T21:26:03.851665,13,EyesClosed
-19579.994032382256,-9507.40391104268,7564.92555915422,-1811.4077224025398,28986.792741631598,9432.212642695027,16162.926395288277,10774.546655958493,0.0,0.0,0.0,2019-03-17T21:26:03.857626,13,EyesClosed
-19723.693397485426,-9661.630947784299,7512.53307015098,-1730.919090618979,28863.52287096058,9946.481579122732,16048.753684610569,10810.912944187277,0.0,0.0,0.0,2019-03-17T21:26:03.858502,13,EyesClosed
-19787.19470348295,-9725.40047471529,7383.3176354548505,-1923.166444679075,28776.820454218443,9771.802696204508,15964.39820103624,10655.143637078243,0.0,0.0,0.0,2019-03-17T21:26:03.865558,13,EyesClosed
-19653.397161173485,-9578.571865388378,7416.174699804152,-2039.0602396798422,28890.47907477368,9222.374465748604,16067.864426119857,10588.647197323704,0.0,0.0,0.0,2019-03-17T21:26:03.866447,13,EyesClosed
-19571.00863111122,-9491.265951545949,7551.939195625687,-1866.5941794626929,28999.01914584865,9327.092388521718,16170.883616314366,10730.804292059456,0.0,0.0,0.0,2019-03-17T21:26:03.873537,13,EyesClosed
-19693.94322561541,-9627.321020045403,7528.87219534781,-1744.8889309035458,28896.312880076515,9872.162028808836,16076.51455122406,10800.362920804373,0.0,0.0,0.0,2019-03-17T21:26:03.874393,13,EyesClosed
-19784.356031937128,-9723.902907836784,7393.331216970828,-1906.6261537821476,28782.095465909897,9836.309830702523,15968.846198182846,10664.888997660757,0.004,1.026,0.176,2019-03-17T21:26:03.880820,13,EyesClosed
-19675.950071328887,-9602.599990677832,7387.787984345911,-2063.7365655585013,28867.076798328973,9275.593969296691,16046.540861909494,10568.262406380463,0.0,0.0,0.0,2019-03-17T21:26:03.881469,13,EyesClosed
-19563.498444974237,-9488.539038722402,7527.106407535841,-1918.3161161322732,28998.34859351499,9240.837006668688,16167.888482557355,10696.248495131553,0.0,0.0,0.0,2019-03-17T21:26:03.887305,13,EyesClosed
-19663.924832811932,-9598.599028420333,7543.289070521483,-1750.0745356171772,28927.471211847213,9792.053376681015,16105.23654284913,10808.722473230657,0.0,0.0,0.0,2019-03-17T21:26:03.895034,13,EyesClosed
-19790.793334340255,-9735.682277164731,7406.406987477182,-1871.265694053852,28785.64939327829,9903.163898368348,15975.596425008349,10698.953056210645,0.0,0.0,0.0,2019-03-17T21:26:03.895737,13,EyesClosed
-19707.46603101087,-9642.453151041645,7366.5314753689145,-2058.997995733976,28832.27513221206,9365.693851196034,16017.21537318413,10573.582121560827,0.0,0.0,0.0,2019-03-17T21:26:03.903178,13,EyesClosed
-19571.232148555773,-9492.718814935544,7496.395110654249,-1959.7338986079574,28979.662535150357,9187.706910098423,16149.783569548557,10664.687831960659,0.0,0.0,0.0,2019-03-17T21:26:03.904005,13,EyesClosed
-19636.32042840963,-9573.073336252373,7547.424143245715,-1760.7810212112693,28946.5819533565,9703.696930849186,16120.458080823193,10805.794394707013,0.0,0.0,0.0,2019-03-17T21:26:03.910177,13,EyesClosed
-19780.28801444626,-9728.529718939033,7424.266031296973,-1831.300774967763,28795.439457349716,9948.962622757272,15979.820904710401,10732.212451960142,0.0,0.0,0.0,2019-03-17T21:26:03.910856,13,EyesClosed
-19737.395016836526,-9671.95745372265,7351.4440478615825,-2041.6306902922024,28806.61532957737,9462.58866340979,15986.794648980458,10582.746336787503,0.0,0.0,0.0,2019-03-17T21:26:03.917923,13,EyesClosed
-19597.003709912744,-9514.779986712932,7457.726592746568,-2002.8504136622446,28953.57804937101,9146.780866000756,16120.212211634185,10631.786064122447,0.002,1.028,0.17,2019-03-17T21:26:03.918567,13,EyesClosed
-19629.100814950565,-9550.878054008253,7537.790541385477,-1792.140518682065,28960.39533142988,9589.367757960292,16127.677694282258,10784.984920619121,0.0,0.0,0.0,2019-03-17T21:26:03.925831,13,EyesClosed
-19775.616499855103,-9707.474375662134,7434.838406424333,-1804.7916060437688,28812.27032092456,9960.92080604086,15991.756736249536,10752.50783592556,0.0,0.0,0.0,2019-03-17T21:26:03.926492,13,EyesClosed
-19762.13839794855,-9692.185782454704,7342.391591357183,-2015.7026667240461,28791.7961230035,9570.592292617834,15972.176608106687,10594.972741004556,0.0,0.0,0.0,2019-03-17T21:26:03.932929,13,EyesClosed
-19607.285512362185,-9528.414550830668,7442.080371627852,-2019.7259807260016,28947.54307836808,9155.38628761605,16117.217077877174,10615.156366247698,0.0,0.0,0.0,2019-03-17T21:26:03.933624,13,EyesClosed
-19604.69271000537,-9527.945164197108,7540.8080268869435,-1813.9781730149,28985.764561386655,9486.147402065684,16154.812712051002,10764.13074304232,0.0,0.0,0.0,2019-03-17T21:26:03.940479,13,EyesClosed
-19750.649601298526,-9683.96034049515,7465.214427139095,-1770.5934370271489,28848.368388219882,9952.516550125665,16028.480652389606,10771.059783823464,0.0,0.0,0.0,2019-03-17T21:26:03.941265,13,EyesClosed
-19780.735049335366,-9727.434483460724,7344.894986736177,-1979.4034337286275,28786.65522177878,9672.96328222314,15968.376811549284,10609.680188856148,0.0,0.0,0.0,2019-03-17T21:26:03.947667,13,EyesClosed
-19629.301980650664,-9562.568016358378,7408.820975878356,-2042.9494432150655,28923.20202865625,9170.741936056846,16096.98874914512,10582.679281554138,0.0,0.0,0.0,2019-03-17T21:26:03.955542,13,EyesClosed
-19582.452724272338,-9505.772233697442,7536.181215784695,-1843.0577925512546,29003.668308695356,9390.90661894162,16175.599834394436,10740.527300897516,0.0,0.0,0.0,2019-03-17T21:26:03.956297,13,EyesClosed
-19717.077281126654,-9639.614479495822,7495.9033722762315,-1747.5711402381828,28886.232243327173,9920.464148576755,16069.004365087078,10792.383348033829,0.004,1.026,0.17,2019-03-17T21:26:03.962746,13,EyesClosed
-19785.987709282366,-9699.986541269605,7365.771516057434,-1934.2752616733626,28787.25871887907,9771.26625433758,15976.870474442301,10641.844349127336,0.0,0.0,0.0,2019-03-17T21:26:03.963481,13,EyesClosed
-19656.191129230396,-9567.932435027651,7395.342873971806,-2050.0349462073978,28896.268176587604,9220.832195381188,16075.08403957892,10572.397479104697,0.0,0.0,0.0,2019-03-17T21:26:03.970034,13,EyesClosed
-19565.800674653136,-9498.798489427387,7530.816797115422,-1875.5125255003604,29005.277634296137,9300.560867853268,16175.242206483152,10713.593448828871,0.0,0.0,0.0,2019-03-17T21:26:03.970954,13,EyesClosed
-19686.097763311598,-9630.71848520261,7512.331904450883,-1743.0337361137554,28899.10684813343,9850.480836687188,16078.66031869177,10791.109298599875,0.0,0.0,0.0,2019-03-17T21:26:03.978845,13,EyesClosed
-19778.38811616756,-9718.046750789494,7378.824934819333,-1891.2705053413517,28780.21791937565,9849.050325042048,15963.705296958125,10663.525541248982,0.0,0.0,0.0,2019-03-17T21:26:03.979715,13,EyesClosed
-19669.445713692396,-9597.66025515321,7368.386670158705,-2047.4421438505822,28860.170109292285,9288.781498525323,16033.55449838096,10560.41694407665,0.0,0.0,0.0,2019-03-17T21:26:03.986077,13,EyesClosed
-19555.697686159336,-9479.26306477345,7502.67595084619,-1915.455092841994,28988.223253276738,9217.635895924079,16151.43759863825,10672.77916345348,0.0,0.0,0.0,2019-03-17T21:26:03.986718,13,EyesClosed
-19641.37192265653,-9573.743888586032,7532.7613988830335,-1737.2893377887415,28931.96391248273,9766.5053327686,16097.592246245415,10791.779850933535,0.0,0.0,0.0,2019-03-17T21:26:03.992719,13,EyesClosed
-19764.99942123883,-9707.988465784605,7402.875411853244,-1845.4494292079723,28793.137227670817,9905.041444902594,15963.280613813475,10688.626550272293,0.0,0.0,0.0,2019-03-17T21:26:03.993499,13,EyesClosed
-19689.964615102366,-9623.901203143741,7352.449876362071,-2042.9717949595208,28831.761042089587,9371.527656498869,15997.83641074138,10553.353792828775,0.0,1.026,0.17200000000000001,2019-03-17T21:26:04.000770,13,EyesClosed
-19548.522776189184,-9472.937521092597,7481.844125013844,-1953.2518927159183,28982.009468318163,9167.478581366371,16136.618392064382,10639.564471192894,0.0,0.0,0.0,2019-03-17T21:26:04.001595,13,EyesClosed
-19617.477907833803,-9545.424228361158,7531.48734944908,-1759.462268288406,28951.387578414393,9666.078944930905,16110.533906285038,10774.859580380868,0.0,0.0,0.0,2019-03-17T21:26:04.007832,13,EyesClosed
-19759.232671169364,-9698.332512179913,7418.678095183146,-1813.2405654478748,28809.9010360123,9943.911128510372,15981.519637289006,10714.219297673619,0.0,0.0,0.0,2019-03-17T21:26:04.016378,13,EyesClosed
-19720.67591198396,-9655.81949422592,7341.229300645507,-2023.1010941387528,28814.61725409237,9473.652776915167,15983.531294289984,10560.394592332195,0.0,0.0,0.0,2019-03-17T21:26:04.017037,13,EyesClosed
-19570.226320055284,-9491.824745157332,7447.735362975045,-1990.0205123448984,28964.128072753916,9138.309554852194,16122.849717479912,10602.438223652629,0.0,0.0,0.0,2019-03-17T21:26:04.022554,13,EyesClosed
-19598.389518068972,-9523.899498450697,7528.045180802964,-1783.7586145113248,28972.554680413567,9560.265786679482,16133.779720518556,10752.932519070211,0.0,0.0,0.0,2019-03-17T21:26:04.023255,13,EyesClosed
-19741.395979094028,-9678.417107870235,7439.465217526582,-1781.8363644881683,28833.169201990273,9958.171541472859,16006.710053290137,10733.642963605282,0.0,0.0,0.0,2019-03-17T21:26:04.030209,13,EyesClosed
-19739.607839537603,-9672.315081633937,7340.961079712043,-1992.9262391240884,28801.519131841556,9588.138412015249,15979.73149773258,10574.81146750587,0.0,0.0,0.0,2019-03-17T21:26:04.030859,13,EyesClosed
-19593.0250993997,-9510.935486666618,7418.029894593942,-2022.6987627385574,28943.340950410482,9143.159883398996,16112.076176652454,10574.878522739235,0.0,0.0,0.0,2019-03-17T21:26:04.038277,13,EyesClosed
-19573.288509045662,-9495.132803336717,7530.5932796708685,-1810.1336729685872,28999.957919115775,9467.550750678867,16167.843779068446,10740.214376475142,0.004,1.024,0.17200000000000001,2019-03-17T21:26:04.038854,13,EyesClosed
-19722.03936839573,-9653.76313373603,7462.822790482377,-1758.8587711881128,28865.95921110621,9949.096733224003,16047.189062498697,10759.258062751063,0.0,0.0,0.0,2019-03-17T21:26:04.045592,13,EyesClosed
-19751.990705965844,-9692.766927810542,7347.912472237644,-1958.5939596407368,28801.295614397004,9701.148831981282,15986.459372813628,10606.550944632405,0.0,0.0,0.0,2019-03-17T21:26:04.046289,13,EyesClosed
-19603.55277103815,-9534.851853233797,7404.931772343132,-2036.1321611561968,28933.21561017223,9190.38911943306,16105.571819015959,10572.173961660143,0.0,0.0,0.0,2019-03-17T21:26:04.052982,13,EyesClosed
-19555.652982670425,-9480.090079318295,7525.139454023773,-1850.3668129881398,29013.36896578896,9373.449906522024,16178.036174540064,10717.437948875184,0.0,0.0,0.0,2019-03-17T21:26:04.053809,13,EyesClosed
-19689.897559869,-9625.219956066603,7493.824660041888,-1743.9948611253335,28902.81723771301,9913.24453511769,16073.98880410061,10777.586493204415,0.0,0.0,0.0,2019-03-17T21:26:04.061075,13,EyesClosed
-19767.815741040202,-9710.78243384152,7359.445972376582,-1924.6193080686699,28800.870931252353,9796.009635449605,15974.232968596574,10631.62960191126,0.0,0.0,0.0,2019-03-17T21:26:04.061827,13,EyesClosed
-19637.013332487742,-9569.228836206059,7374.712213839557,-2053.5665218313366,28902.549016779547,9239.16062583454,16064.93634759621,10554.292566095897,0.0,0.0,0.0,2019-03-17T21:26:04.068243,13,EyesClosed
-19550.66854365689,-9473.92099784863,7500.8207560564,-1901.3064386017847,29009.010375620175,9278.902027476077,16160.355944675917,10679.261169345518,0.0,0.0,0.0,2019-03-17T21:26:04.068885,13,EyesClosed
-19667.970498558345,-9603.561115689412,7491.120098962796,-1760.5351520222607,28917.256464631137,9830.498377144144,16075.553426212482,10766.589434932404,0.0,0.0,0.0,2019-03-17T21:26:04.076246,13,EyesClosed
-19768.28512767376,-9715.431596688222,7361.994071244487,-1896.0761303992429,28797.249948650595,9859.645051913863,15961.134846345765,10643.274860772475,0.002,1.018,0.17200000000000001,2019-03-17T21:26:04.083930,13,EyesClosed
-19667.724629369335,-9600.163650532204,7346.705478037057,-2060.4955626124815,28868.730827418665,9301.03025448683,16027.74304482258,10532.633725718704,0.0,0.0,0.0,2019-03-17T21:26:04.084699,13,EyesClosed
-19546.73463663276,-9468.243654756983,7480.972406980087,-1936.6445465856252,29003.668308695356,9204.068387039708,16153.359848661406,10640.123264804277,0.0,0.0,0.0,2019-03-17T21:26:04.090753,13,EyesClosed
-19628.206745172352,-9561.159856457694,7511.884869561776,-1752.689689718448,28950.29234293608,9746.232300547636,16105.571819015959,10761.895568596789,0.0,0.0,0.0,2019-03-17T21:26:04.091420,13,EyesClosed
-19761.892528759545,-9714.537526910011,7376.500353395982,-1854.9936240903885,28804.871893509855,9909.064758904547,15968.421515038195,10662.519712748493,0.0,0.0,0.0,2019-03-17T21:26:04.097982,13,EyesClosed
-19690.881036625033,-9629.846767168852,7332.445065074571,-2045.4081351051493,28848.681312642257,9394.304084098827,16007.335902134884,10532.924298396623,0.0,0.0,0.0,2019-03-17T21:26:04.098861,13,EyesClosed
-19558.134026304964,-9471.372898980726,7452.540988032936,-1976.9223900940885,28994.63820393541,9156.816799261189,16143.94976424572,10607.445014410618,0.0,0.0,0.0,2019-03-17T21:26:04.105160,13,EyesClosed
-19606.100869906055,-9535.07537067835,7517.875137075799,-1772.560390539216,28983.35057298548,9646.811741210431,16136.86426125339,10756.17352201623,0.0,0.0,0.0,2019-03-17T21:26:04.105882,13,EyesClosed
-19753.085941444155,-9708.748425096086,7406.205821777085,-1816.0121817603329,28839.003007293108,9948.292070423613,16001.88207648779,10701.992893456567,0.0,0.0,0.0,2019-03-17T21:26:04.112973,13,EyesClosed
-19723.76045271879,-9673.879703745808,7325.8513004602555,-2023.8834051946885,28838.46656542618,9501.704216206577,16003.558457321938,10552.70559223957,0.0,0.0,0.0,2019-03-17T21:26:04.113306,13,EyesClosed
-19571.478017744783,-9507.40391104268,7429.965726133076,-2002.1798613285855,28987.6421079209,9144.702153766413,16145.62614507987,10594.391595648718,-0.002,1.022,0.17400000000000002,2019-03-17T21:26:04.120969,13,EyesClosed
-19588.375936552995,-9524.16771938416,7518.612744642824,-1792.9228297380007,29006.104648840985,9548.41936211817,16165.63095636737,10751.993745803089,0.0,0.0,0.0,2019-03-17T21:26:04.121228,13,EyesClosed
-19737.819699981177,-9681.881628260808,7432.178548834151,-1779.5564865537272,28867.18855705125,9965.838189821028,16037.823681571923,10740.147321241775,0.0,0.0,0.0,2019-03-17T21:26:04.127729,13,EyesClosed
-19739.741950004336,-9679.355881137357,7331.372181340716,-1988.1206140661973,28829.056481010495,9621.107235086827,16004.094899188865,10585.741470544514,0.0,0.0,0.0,2019-03-17T21:26:04.128093,13,EyesClosed
-19588.51004701973,-9513.93062042363,7407.636333422224,-2023.1010941387528,28967.480834422215,9161.980052230365,16132.505671084604,10580.891141997712,0.0,0.0,0.0,2019-03-17T21:26:04.135106,13,EyesClosed
-19563.856072885523,-9492.428242257625,7518.858613831832,-1819.0296672617994,29024.07545138305,9454.944366806074,16184.898160087843,10738.94032704119,0.0,0.0,0.0,2019-03-17T21:26:04.142882,13,EyesClosed
-19711.310531057185,-9651.237386612582,7452.161008377196,-1763.7761549682803,28888.80269393953,9944.15699769938,16056.152112025275,10757.492274939093,0.0,0.0,0.0,2019-03-17T21:26:04.143726,13,EyesClosed
-19749.353200120117,-9687.49191611909,7332.109788907742,-1960.29269221934,28814.19257094772,9715.252782732581,15981.743154733558,10601.298284685408,0.0,0.0,0.0,2019-03-17T21:26:04.150958,13,EyesClosed
-19609.386576340985,-9534.918908467163,7378.333196441316,-2050.4596293520485,28935.54019159558,9185.315273441705,16093.390118287816,10553.398496317684,0.0,0.0,0.0,2019-03-17T21:26:04.151684,13,EyesClosed
-19555.854148370523,-9487.332044521814,7507.369817181804,-1862.9508451164777,29028.5010967852,9346.292537008827,16181.143067019353,10701.054120189443,0.0,0.0,0.0,2019-03-17T21:26:04.157526,13,EyesClosed
-19683.259091765773,-9625.6222874668,7479.094860445841,-1747.5487884937274,28923.693767034267,9892.792688941085,16085.477600750639,10767.37174598834,0.004,1.026,0.17200000000000001,2019-03-17T21:26:04.158233,13,EyesClosed
-19763.166578193497,-9708.033169273516,7344.5150070804375,-1922.1382644341309,28816.293634926515,9801.485812841156,15983.933625690179,10621.705427373103,0.0,0.0,0.0,2019-03-17T21:26:04.165559,13,EyesClosed
-19649.12797798252,-9576.537856642944,7344.939690225088,-2064.898856270177,28904.24774935815,9231.985715864386,16061.471827205638,10527.023437860422,0.0,0.0,0.0,2019-03-17T21:26:04.166404,13,EyesClosed
-19552.277869257676,-9478.324291506326,7477.798459267433,-1907.3190578602623,29020.02978563664,9249.218910839429,16168.223758724185,10654.450733000129,0.0,0.0,0.0,2019-03-17T21:26:04.173729,13,EyesClosed
-19651.877242550523,-9584.539781157944,7489.689587317656,-1740.7091546904035,28946.000808000663,9819.680132827776,16103.604865503892,10762.208493019163,0.0,0.0,0.0,2019-03-17T21:26:04.174492,13,EyesClosed
-19757.690400801945,-9691.984616754606,7359.7812485434115,-1864.5154672283493,28819.579341361445,9882.5332382361,15984.984157679577,10650.025087597978,0.0,0.0,0.0,2019-03-17T21:26:04.180969,13,EyesClosed
-19652.726608839825,-9572.089859496338,7341.206948901052,-2026.7891319738785,28891.395496296347,9337.84357760472,16052.285260234506,10544.167225857644,0.0,0.0,0.0,2019-03-17T21:26:04.181807,13,EyesClosed
-19530.417863180384,-9442.6285556112,7472.992834209542,-1910.0906741727204,29032.814983465076,9213.97020983341,16185.076974043486,10652.617889954792,0.0,0.0,0.0,2019-03-17T21:26:04.188301,13,EyesClosed
-19620.49539333527,-9543.010239959984,7506.00636077003,-1729.0862475736437,28982.36709622945,9741.717248167664,16141.938107244743,10778.36880426035,0.0,0.0,0.0,2019-03-17T21:26:04.188942,13,EyesClosed
-19755.790502523247,-9689.34711090888,7382.401213932182,-1822.1589114855424,28840.299408471517,9931.01417195966,16008.45348935765,10688.179515383186,0.0,0.0,0.0,2019-03-17T21:26:04.195192,13,EyesClosed
-19699.061775095677,-9625.37641827779,7320.263364346429,-2033.0923239102751,28865.400417494824,9407.849241238742,16028.145376222776,10538.601641488272,0.0,1.028,0.168,2019-03-17T21:26:04.202968,13,EyesClosed
-19556.502348959726,-9475.507971704958,7434.816054679877,-1975.5589336823148,29012.206675077283,9142.37757234306,16166.815598823501,10601.924133530156,0.0,0.0,0.0,2019-03-17T21:26:04.203711,13,EyesClosed
-19595.707308734334,-9521.418454816157,7502.0053985125305,-1769.855829460124,29003.914177884362,9620.079054841883,16162.613470865903,10751.390248702795,0.0,0.0,0.0,2019-03-17T21:26:04.210163,13,EyesClosed
-19736.970333691876,-9669.945796721673,7406.317580499361,-1791.045283203755,28866.585059950958,9957.143361227914,16036.929611793712,10714.331056395897,0.0,0.0,0.0,2019-03-17T21:26:04.210837,13,EyesClosed
-19718.37368230506,-9645.805912709942,7320.330419579795,-2001.0175706169096,28852.99519932213,9521.999600171996,16023.607972098349,10555.812484718857,0.0,0.0,0.0,2019-03-17T21:26:04.217619,13,EyesClosed
-19566.69474443135,-9478.905436862164,7419.952144617098,-1989.7969949003452,29000.02497434914,9137.393133329528,16158.210177208208,10581.114659442266,0.0,0.0,0.0,2019-03-17T21:26:04.218118,13,EyesClosed
-19572.282680545173,-9489.790736411898,7515.170575996706,-1780.5399633097607,29024.947169416806,9515.785815213421,16179.511389674115,10730.31255368144,0.0,0.0,0.0,2019-03-17T21:26:04.225923,13,EyesClosed
-19723.08990038513,-9656.19947388166,7429.004601121498,-1760.9374834224564,28883.728847948176,9948.627346590441,16043.32221070793,10716.677989563703,0.0,0.0,0.0,2019-03-17T21:26:04.226799,13,EyesClosed
-19736.970333691876,-9663.039107684983,7316.68708523358,-1973.1225935366863,28836.79018459203,9625.465825255613,15997.16585840772,10556.974775430534,0.0,0.0,0.0,2019-03-17T21:26:04.233842,13,EyesClosed
-19584.084401617576,-9495.06574810335,7390.961932058565,-2020.7318092264902,28979.126093283427,9149.977165457865,16128.214136149185,10547.251766592475,0.0,0.0,0.0,2019-03-17T21:26:04.234647,13,EyesClosed
-19547.874575599977,-9465.382631466702,7508.554459637936,-1818.3144114392296,29047.164803405383,9415.605296564734,16193.68239565878,10703.468108590616,0.002,1.02,0.17,2019-03-17T21:26:04.240390,13,EyesClosed
-19693.94322561541,-9623.923554888195,7454.060906655897,-1748.9569483944117,28918.217589642718,9920.218279387747,16075.441667490206,10731.966582771132,0.0,0.0,0.0,2019-03-17T21:26:04.241094,13,EyesClosed
-19754.270583900285,-9689.682387075709,7323.370256825717,-1952.7378025934463,28830.03995776653,9712.391759442302,15991.175590893698,10570.944615715101,0.0,0.0,0.0,2019-03-17T21:26:04.248247,13,EyesClosed
-19611.73350950879,-9538.942222469119,7365.212722446052,-2050.1467049296743,28952.30399993706,9171.993633746342,16102.263760836573,10517.233373788999,0.0,0.0,0.0,2019-03-17T21:26:04.248711,13,EyesClosed
-19542.82308135308,-9460.688765131088,7495.456337387126,-1868.4717259969386,29051.210469151792,9299.800908541789,16193.34711949195,10660.530407491971,0.0,0.0,0.0,2019-03-17T21:26:04.254774,13,EyesClosed
-19673.580786416627,-9601.460051710612,7476.256188900017,-1744.240730314342,28946.604305100955,9848.71504887522,16095.915865411267,10731.36308567084,0.0,0.0,0.0,2019-03-17T21:26:04.262551,13,EyesClosed
-19764.261813671805,-9702.691102348697,7339.150588411163,-1911.2753166288517,28829.57057113297,9783.962045188195,15984.224198368098,10586.166153689164,0.0,0.0,0.0,2019-03-17T21:26:04.263241,13,EyesClosed
-19633.25823941925,-9564.445562892624,7348.225396660018,-2047.129219428208,28930.846325259965,9231.96336411993,16077.140400068809,10505.185783527588,0.0,0.0,0.0,2019-03-17T21:26:04.270757,13,EyesClosed
-19529.792014335635,-9459.615881397234,7481.866476758299,-1895.0032466653881,29057.60306806601,9224.319067516217,16195.358776492927,10634.490625201539,0.0,0.0,0.0,2019-03-17T21:26:04.271444,13,EyesClosed
-19645.775216314225,-9580.918798556186,7481.285331402461,-1741.1561895795096,28976.868567093443,9773.926111927762,16121.866240723879,10736.302821195462,0.0,0.0,0.0,2019-03-17T21:26:04.277715,13,EyesClosed
-19756.170482178986,-9696.745538323587,7354.997975229976,-1864.3366532727068,28851.318818487984,9869.85979912994,16003.871381744311,10632.657782156204,0.004,1.026,0.17,2019-03-17T21:26:04.278591,13,EyesClosed
-19667.948146813887,-9597.593199919844,7321.291544591373,-2051.4431061080822,28906.10294414794,9321.906783808086,16052.329963723418,10508.024455073411,0.0,0.0,0.0,2019-03-17T21:26:04.285438,13,EyesClosed
-19542.756026119714,-9458.408887196647,7448.450618797615,-1949.0497647583206,29045.130794659948,9158.582587073159,16180.293700730052,10600.001883507,0.0,0.0,0.0,2019-03-17T21:26:04.286197,13,EyesClosed
-19610.54886705266,-9540.037457947428,7500.8878112897655,-1746.9229396489789,29013.3466140445,9686.664901574242,16152.622241094381,10738.582699129904,0.0,0.0,0.0,2019-03-17T21:26:04.293607,13,EyesClosed
-19751.47661584337,-9691.24700918758,7380.948350542588,-1823.1423882415759,28868.19438555174,9913.065721162047,16015.024902227511,10658.429343513173,0.0,0.0,0.0,2019-03-17T21:26:04.294316,13,EyesClosed
-19695.105516327087,-9625.577583977889,7327.527681294404,-2016.1049981242418,28894.412981797814,9427.429369381593,16039.500062406072,10521.010818601944,0.0,0.0,0.0,2019-03-17T21:26:04.300731,13,EyesClosed
-19554.58009893657,-9466.880198345209,7446.461313541093,-1960.4715061749826,29042.895620214418,9141.416447331483,16177.924415817788,10580.846438508803,0.0,0.0,0.0,2019-03-17T21:26:04.301384,13,EyesClosed
-19602.390480326474,-9521.26199260497,7510.387302683271,-1767.9559311814228,29028.07641364055,9586.394975947736,16165.094514500443,10718.622591331316,0.0,0.0,0.0,2019-03-17T21:26:04.308097,13,EyesClosed
-19745.016961695786,-9679.646453815276,7405.714083399068,-1794.9344867389784,28880.130217090875,9931.617669059953,16023.965600009633,10674.835523943368,0.0,0.0,0.0,2019-03-17T21:26:04.308802,13,EyesClosed
-19726.085034142143,-9653.629023269299,7319.704570735046,-2004.6609049631245,28867.18855705125,9521.93254493863,16009.146393435765,10523.089530836289,0.0,0.0,0.0,2019-03-17T21:26:04.315212,13,EyesClosed
-19577.468285258805,-9494.59636146979,7411.681999168635,-2007.7230939535016,29016.766430946165,9118.304743564695,16144.128578201364,10544.882481680213,0.002,1.03,0.168,2019-03-17T21:26:04.315925,13,EyesClosed
-19566.091247331053,-9491.02008235694,7513.024808528997,-1795.1803559279867,29056.351370376513,9482.794640397387,16182.752392620134,10706.35148362535,0.0,0.0,0.0,2019-03-17T21:26:04.323628,13,EyesClosed
-19719.357159061095,-9653.316098846924,7434.056095368397,-1771.1969341274423,28912.00380468414,9924.375703856434,16047.859614832356,10702.529335323494,0.0,0.0,0.0,2019-03-17T21:26:04.331661,13,EyesClosed
-19741.9100692165,-9673.030337456506,7328.041771416876,-1973.904904592622,28860.70655115921,9622.269525798503,15997.322320618907,10546.894138681191,0.0,0.0,0.0,2019-03-17T21:26:04.332437,13,EyesClosed
-19586.140762107465,-9513.327123323337,7400.796699618901,-2025.44802730656,28998.460352237267,9135.515586795282,16125.24135413663,10532.611373974249,0.0,0.0,0.0,2019-03-17T21:26:04.337867,13,EyesClosed
-19547.852223855523,-9475.664433916145,7515.707017863634,-1829.6914493669808,29062.09576870153,9370.43242102056,16185.032270554577,10681.630454257782,0.0,0.0,0.0,2019-03-17T21:26:04.338665,13,EyesClosed
-19692.803286648188,-9627.94686889015,7467.8966364737325,-1744.0395646142442,28938.40121488586,9891.943322651783,16072.021850588544,10725.998667001566,0.0,0.0,0.0,2019-03-17T21:26:04.345749,13,EyesClosed
-19751.76718852129,-9691.515230121044,7342.056315190353,-1932.777694794857,28850.536507432047,9720.863070590864,15987.286387358474,10576.689014040116,0.0,0.0,0.0,2019-03-17T21:26:04.346415,13,EyesClosed
-19612.135840908988,-9535.343591611814,7379.182562730618,-2038.5237978129148,28968.486662922704,9177.916846027,16096.51936251156,10522.731902925003,0.0,0.0,0.0,2019-03-17T21:26:04.353602,13,EyesClosed
-19531.446043425327,-9444.707267845544,7516.109349263829,-1859.7098421704582,29077.47376888678,9282.433603100015,16198.44331722776,10672.086259375366,0.0,0.0,0.0,2019-03-17T21:26:04.354067,13,EyesClosed
-19662.181396744418,-9584.80800209141,7493.757604808522,-1736.5517302217163,28972.286459480103,9831.303039944534,16102.733147470135,10747.813969589946,0.008,1.03,0.164,2019-03-17T21:26:04.360287,13,EyesClosed
-19763.725371804878,-9696.812593556953,7353.7909810293895,-1896.679627499536,28849.262457998095,9797.12722267237,15984.917102446212,10612.027122023956,0.0,0.0,0.0,2019-03-17T21:26:04.361016,13,EyesClosed
-19648.12214948203,-9575.174400231172,7348.828893760311,-2048.269158395429,28932.857982260943,9233.371524020617,16060.018963816043,10515.467585977029,0.0,0.0,0.0,2019-03-17T21:26:04.368551,13,EyesClosed
-19534.038845782143,-9451.479846415503,7487.342654149849,-1903.2063368804859,29064.12977744696,9194.68065436848,16182.797096109045,10640.39148573774,0.0,0.0,0.0,2019-03-17T21:26:04.369408,13,EyesClosed
-19635.828690031612,-9562.635071591743,7505.335808436372,-1736.6187854550822,28995.93460511382,9742.946594112705,16118.111147655387,10750.406771946762,0.0,0.0,0.0,2019-03-17T21:26:04.376442,13,EyesClosed
-19764.19475843844,-9703.652227360277,7370.4653823930485,-1858.9945863478883,28855.878574356866,9855.085296044981,15982.078430900388,10640.905575860212,0.0,0.0,0.0,2019-03-17T21:26:04.377325,13,EyesClosed
-19673.200806760884,-9598.442566209145,7344.783228013901,-2033.002916932454,28915.848304730454,9326.22067048796,16034.761492581547,10526.129368082211,0.0,0.0,0.0,2019-03-17T21:26:04.383687,13,EyesClosed
-19545.035904054155,-9457.671279629621,7471.472915586582,-1939.326755920262,29054.987913964742,9139.941232197432,16162.233491210163,10614.172889491665,0.0,0.0,0.0,2019-03-17T21:26:04.389893,13,EyesClosed
-19609.69950076336,-9534.628335789244,7525.184157512684,-1740.373878523574,29023.717823471765,9654.277223858504,16134.204403663207,10751.79258010299,0.0,0.0,0.0,2019-03-17T21:26:04.390588,13,EyesClosed
-19747.743874519336,-9684.608541084355,7406.541097943914,-1806.2891729222742,28876.173958322284,9908.4389100598,15996.227085140597,10680.624625757293,0.0,0.0,0.0,2019-03-17T21:26:04.397939,13,EyesClosed
-19697.0501180947,-9620.23551705307,7338.614146544236,-2009.4441782765603,28890.367316051404,9429.262212426927,16008.744062035568,10539.316897310842,0.002,1.03,0.164,2019-03-17T21:26:04.398881,13,EyesClosed
-19557.709343160313,-9468.288358245893,7439.979307649053,-1974.5307534373705,29030.758622975187,9108.179403326441,16139.993505477132,10586.926113000645,0.0,0.0,0.0,2019-03-17T21:26:04.405910,13,EyesClosed
-19585.53726500717,-9496.07157660384,7520.713808621623,-1762.9491404234338,29034.75958523269,9545.334821383336,16147.213118936197,10738.023905518521,0.0,0.0,0.0,2019-03-17T21:26:04.406832,13,EyesClosed
-19731.38239757805,-9662.636776284788,7429.6304499662465,-1772.5380387947607,28894.234167842173,9920.598259043487,16018.958809251644,10712.811137772935,0.0,0.0,0.0,2019-03-17T21:26:04.413164,13,EyesClosed
-19734.779862735257,-9667.330642620402,7328.064123161331,-1995.6531519476357,28859.074873813974,9524.324181595348,15986.235855369076,10548.928147426623,0.0,0.0,0.0,2019-03-17T21:26:04.413792,13,EyesClosed
-19582.0727446166,-9498.999655127485,7417.135824815729,-2015.2332800904849,29002.863645894966,9096.51179272077,16118.33466509994,10558.315880097853,0.0,0.0,0.0,2019-03-17T21:26:04.420742,13,EyesClosed
-19559.944517605843,-9479.508933962457,7523.328962722893,-1808.1220159676095,29049.80230925111,9430.96094500553,16160.11007548691,10715.73921629658,0.0,0.0,0.0,2019-03-17T21:26:04.421400,13,EyesClosed
-19711.154068845997,-9645.940023176674,7448.785894964444,-1769.3417393376517,28912.987281440175,9896.503078520665,16031.8334140579,10722.534146610993,0.0,0.0,0.0,2019-03-17T21:26:04.428778,13,EyesClosed
-19747.14037741904,-9673.969110723629,7329.896966206667,-1972.8320208587672,28850.894135343333,9622.448339754146,15970.008488894522,10562.830932477824,0.0,0.0,0.0,2019-03-17T21:26:04.429725,13,EyesClosed
-19604.960930938832,-9515.607001257778,7382.535324398915,-2044.3128996268392,28976.421532204335,9109.47580450485,16083.868275149856,10527.492824493984,0.0,0.0,0.0,2019-03-17T21:26:04.435947,13,EyesClosed
-19550.86970935699,-9469.182428024105,7504.464090402615,-1848.3998594760728,29052.350408119015,9318.062283761774,16155.304450429017,10678.68002398968,0.002,1.028,0.168,2019-03-17T21:26:04.436731,13,EyesClosed
-19680.867455109055,-9616.659237940221,7469.707127774612,-1747.8393611716465,28939.071767219517,9856.739325134675,16052.218205001142,10734.69349559468,0.0,0.0,0.0,2019-03-17T21:26:04.442388,13,EyesClosed
-19748.213261152898,-9679.95937823765,7343.956213469054,-1927.4803313589493,28847.56372541949,9721.131291524327,15966.007526637022,10592.983435748034,0.0,0.0,0.0,2019-03-17T21:26:04.450194,13,EyesClosed
-19617.32144562262,-9547.681754551144,7362.709327067057,-2053.320652642328,28949.599438857967,9161.734183041357,16059.03548706001,10518.46271973404,0.0,0.0,0.0,2019-03-17T21:26:04.451079,13,EyesClosed
-19534.955267304813,-9463.974471566018,7491.880058274277,-1890.3093803297736,29053.780919764155,9227.336553017683,16155.595023106936,10651.433247498662,0.0,0.0,0.0,2019-03-17T21:26:04.458156,13,EyesClosed
-19658.35924844256,-9596.028577807972,7479.921874990688,-1751.8403234291463,28958.83070931801,9782.21860912068,16068.154998797776,10735.609917117348,0.0,0.0,0.0,2019-03-17T21:26:04.459069,13,EyesClosed
-19760.439665369948,-9700.187706969704,7347.443085604083,-1903.1616333915752,28839.65120788231,9784.99022543314,15956.217462565597,10606.506241143494,0.0,0.0,0.0,2019-03-17T21:26:04.465259,13,EyesClosed
-19647.65276284847,-9572.5592461299,7346.727829781513,-2053.11948694223,28928.544095581066,9235.53964323278,16038.248364716574,10512.047769075367,0.0,0.0,0.0,2019-03-17T21:26:04.466040,13,EyesClosed
-19530.216697480286,-9445.735448090489,7484.839258770855,-1918.4949300879157,29061.201698923316,9164.729316798368,16161.853511554422,10630.869642599779,0.0,0.0,0.0,2019-03-17T21:26:04.472764,13,EyesClosed
-19627.1338614385,-9553.023821475963,7506.833375314877,-1745.4253727704731,28997.342765014502,9707.228506473126,16103.984845159632,10746.338754455895,0.0,0.0,0.0,2019-03-17T21:26:04.473360,13,EyesClosed
-19756.0140199678,-9690.911733020752,7375.785097573412,-1854.1219060566314,28858.42667322477,9853.43126695529,15972.511884273516,10645.73355266256,0.002,1.022,0.17,2019-03-17T21:26:04.480823,13,EyesClosed
-19685.829542378135,-9613.977028605585,7322.744407980968,-2052.4265828641155,28894.569444009,9320.65508611859,16001.457393343138,10507.353902739753,0.0,0.0,0.0,2019-03-17T21:26:04.481447,13,EyesClosed
-19542.174880763876,-9461.985166309496,7453.256243855506,-1961.9467213090327,29046.002512693707,9108.648789960002,16139.278249654562,10593.028139236945,0.0,0.0,0.0,2019-03-17T21:26:04.488796,13,EyesClosed
-19604.98328268329,-9525.441768818113,7509.269715460506,-1763.038547401255,29019.56039900308,9605.125737801283,16116.568877287971,10728.278544936007,0.0,0.0,0.0,2019-03-17T21:26:04.489481,13,EyesClosed
-19738.981990692853,-9673.075040945416,7399.410891462671,-1811.3406671691737,28882.544205492046,9894.647883730875,15990.102707159844,10675.439021043661,0.0,0.0,0.0,2019-03-17T21:26:04.495556,13,EyesClosed
-19690.009318591277,-9606.779766890975,7324.152567881652,-2020.6200505042139,28890.143798606852,9433.084360728784,15995.556532806939,10529.549184983873,0.0,0.0,0.0,2019-03-17T21:26:04.496185,13,EyesClosed
-19540.878479585466,-9450.026983025908,7428.848138910311,-1991.808651901323,29035.854820710996,9092.711996163369,16134.137348429842,10574.655005294682,0.0,0.0,0.0,2019-03-17T21:26:04.502800,13,EyesClosed
-19563.744314163247,-9494.55165798088,7520.266773732516,-1776.2260766298864,29054.45147209781,9519.518556537456,16153.024572494576,10733.799425816469,0.0,0.0,0.0,2019-03-17T21:26:04.510201,13,EyesClosed
-19715.445603781416,-9665.721317019621,7424.198976063607,-1778.170678397498,28906.594682525956,9910.450567060778,16016.522469106016,10710.441852860673,0.0,0.0,0.0,2019-03-17T21:26:04.510857,13,EyesClosed
-19712.875153169054,-9655.327755847902,7324.9125271931325,-1992.1439280681525,28872.664734442802,9536.438827090124,15981.743154733558,10547.676449737126,0.0,0.0,0.0,2019-03-17T21:26:04.518562,13,EyesClosed
-19565.621860697494,-9487.890838133197,7406.250525265995,-2020.3518295707502,29013.436021022324,9088.532219950226,16112.456156308193,10549.464589293551,0.002,1.02,0.17200000000000001,2019-03-17T21:26:04.519377,13,EyesClosed
-19547.20402326632,-9471.909340847653,7515.639962630268,-1812.9499927699558,29065.627344325465,9397.634494022668,16160.378296420373,10704.585695813383,0.0,0.0,0.0,2019-03-17T21:26:04.525030,13,EyesClosed
-19687.95295810139,-9623.47651999909,7446.461313541093,-1754.880160675068,28931.516877593625,9881.81798241353,16034.426216414717,10721.371855899317,0.0,0.0,0.0,2019-03-17T21:26:04.525794,13,EyesClosed
-19728.81194696569,-9666.4812763311,7319.145777123664,-1958.9515875520217,28855.85622261241,9630.33850554687,15961.336012045862,10559.142894642699,0.0,0.0,0.0,2019-03-17T21:26:04.533128,13,EyesClosed
-19588.711212719823,-9500.541925494901,7368.900760281177,-2037.1156379122303,28986.345706742493,9110.302819049695,16079.107353580875,10520.854356390759,0.0,0.0,0.0,2019-03-17T21:26:04.533807,13,EyesClosed
-19532.228354481264,-9433.19611945106,7502.7653578240115,-1840.6438041500812,29080.826530555074,9297.878658518632,16165.586252878458,10678.769430967503,0.0,0.0,0.0,2019-03-17T21:26:04.541325,13,EyesClosed
-19666.338821213107,-9593.94986557363,7471.987005709053,-1737.5352069777498,28967.816110589043,9840.824883082496,16061.829455116924,10737.59922237387,0.0,0.0,0.0,2019-03-17T21:26:04.541979,13,EyesClosed
-19734.533993546247,-9671.890398489286,7347.554844326359,-1914.3375056192288,28872.75414142062,9735.816387631463,15972.645994740249,10598.660778839681,0.0,0.0,0.0,2019-03-17T21:26:04.548450,13,EyesClosed
-19610.12418390801,-9534.516577066968,7360.407097388161,-2049.2079316625513,28974.07459903653,9177.782735560268,16065.405734229773,10520.809652901848,0.0,0.0,0.0,2019-03-17T21:26:04.549231,13,EyesClosed
-19524.1593747329,-9442.58385212229,7482.425270369682,-1897.5960490222037,29078.971335765284,9211.600924921147,16166.14504648984,10644.72772416207,0.0,0.0,0.0,2019-03-17T21:26:04.556371,13,EyesClosed
-19639.673190077923,-9567.12777222726,7475.540933077447,-1750.4768670173726,28990.436075977814,9767.846437435917,16086.572836228948,10734.447626405672,0.004,1.024,0.166,2019-03-17T21:26:04.557045,13,EyesClosed
-19740.14428140453,-9671.465715344633,7345.07380069182,-1887.3365983172177,28872.217699553694,9805.687940798753,15976.222273853098,10617.682113371147,0.0,0.0,0.0,2019-03-17T21:26:04.564353,13,EyesClosed
-19637.683884821403,-9557.963557000585,7329.874614462211,-2049.4538008515597,28949.599438857967,9255.052716142263,16048.731332866113,10514.349998754264,0.0,0.0,0.0,2019-03-17T21:26:04.564995,13,EyesClosed
-19522.259476454197,-9433.91137527363,7455.513770045492,-1930.8330930272452,29080.37949566597,9149.15015091302,16172.828218081979,10617.592706393327,0.0,0.0,0.0,2019-03-17T21:26:04.571061,13,EyesClosed
-19607.665492017924,-9527.185204885627,7490.583657095869,-1746.6547187155152,29030.624512508457,9691.090546976393,16128.14708091582,10740.08026600841,0.0,0.0,0.0,2019-03-17T21:26:04.577188,13,EyesClosed
-19732.120005145076,-9665.497799575067,7367.9396352695985,-1835.45819943645,28891.998993396643,9868.205770040247,15997.657596785737,10651.902634132222,0.0,0.0,0.0,2019-03-17T21:26:04.578174,13,EyesClosed
-19661.64495487749,-9586.976121303573,7319.145777123664,-2026.9232424406105,28927.806488014045,9352.215749289484,16027.832451800401,10519.200327301065,0.0,0.0,0.0,2019-03-17T21:26:04.585511,13,EyesClosed
-19524.069967755077,-9437.174729964105,7441.432171038648,-1956.2693782173847,29074.165710707395,9106.905353892489,16161.831159809968,10592.67051132566,0.0,0.0,0.0,2019-03-17T21:26:04.586223,13,EyesClosed
-19575.747200935748,-9496.228038815027,7506.63220961478,-1751.0133088843,29060.642905311932,9595.067452796395,16152.555185861014,10741.309611953451,0.0,0.0,0.0,2019-03-17T21:26:04.593495,13,EyesClosed
-19728.588429521136,-9658.613462282832,7388.525591912937,-1798.7342832963805,28908.53928429357,9897.419500043334,16010.196925425163,10680.401108312739,0.0,0.0,0.0,2019-03-17T21:26:04.594278,13,EyesClosed
-19695.440792493915,-9619.47555774159,7305.578268239292,-2007.7677974424123,28905.611205769925,9452.530378404901,16005.659521300737,10528.722170439027,0.0,1.026,0.164,2019-03-17T21:26:04.600548,13,EyesClosed
-19549.23803201175,-9462.186332009594,7403.478908953537,-1993.6638466911133,29053.26682964168,9082.921932091944,16140.172319432775,10560.595758032294,0.0,0.0,0.0,2019-03-17T21:26:04.601475,13,EyesClosed
-19558.335192005063,-9469.562407679845,7496.126889720785,-1781.8363644881683,29078.09961773153,9484.716890420543,16162.278194699073,10716.588582585882,0.0,0.0,0.0,2019-03-17T21:26:04.608157,13,EyesClosed
-19712.696339213413,-9634.42887478219,7403.367150231261,-1776.3154836077076,28930.399290370857,9900.347578566978,16023.74208256508,10698.64013178827,0.0,0.0,0.0,2019-03-17T21:26:04.609015,13,EyesClosed
-19728.029635909752,-9661.072154172916,7294.961189623022,-1994.2002885580407,28880.15256883533,9547.748809784509,15974.054154640933,10530.309144295352,0.0,0.0,0.0,2019-03-17T21:26:04.615943,13,EyesClosed
-19567.54411072065,-9490.595399212289,7382.736490099012,-2025.291565095373,29026.578846762044,9087.414632727461,16108.455194050694,10526.50934773795,0.0,0.0,0.0,2019-03-17T21:26:04.616469,13,EyesClosed
-19542.68897088635,-9461.694593631577,7500.843107800854,-1821.488359151883,29085.252175957226,9373.069926866285,16163.194616221741,10679.931721679179,0.0,0.0,0.0,2019-03-17T21:26:04.624157,13,EyesClosed
-19689.517580213258,-9616.480423984578,7445.433133296148,-1755.2154368418976,28959.009523273653,9875.090107332482,16044.50685316406,10708.229030159597,0.0,0.0,0.0,2019-03-17T21:26:04.624851,13,EyesClosed
-19744.748740762323,-9676.33839563589,7317.02236140041,-1956.0458607728317,28879.660830457313,9653.71843024712,15967.773314448992,10549.196368360088,0.0,0.0,0.0,2019-03-17T21:26:04.630217,13,EyesClosed
-19606.659663517436,-9529.196861886605,7360.004765987965,-2048.671489795624,29003.623605206445,9122.395112800015,16081.029603604033,10503.08471954879,0.0,0.0,0.0,2019-03-17T21:26:04.637612,13,EyesClosed
-19536.96692430579,-9453.938538305585,7496.0151309985085,-1859.2181037924415,29103.893530832953,9278.700861775978,16172.470590170693,10655.501264989527,0.0,1.03,0.16,2019-03-17T21:26:04.638595,13,EyesClosed
-19668.730457869824,-9600.789499376953,7471.875246986777,-1744.4195442699845,28996.851026636486,9824.351647418935,16075.41931574575,10725.26105943454,0.0,0.0,0.0,2019-03-17T21:26:04.645502,13,EyesClosed
-19754.851729256123,-9693.683349333209,7337.317745365828,-1917.4443980985163,28887.416885783303,9737.224547532147,15972.042497639955,10583.171019932153,0.0,0.0,0.0,2019-03-17T21:26:04.646049,13,EyesClosed
-19620.49539333527,-9550.98981273053,7349.968832727532,-2051.130181685708,28989.050267821585,9182.454250151426,16062.611766172859,10504.895210849669,0.0,0.0,0.0,2019-03-17T21:26:04.653744,13,EyesClosed
-19522.10301424301,-9444.975488779008,7479.966578479598,-1897.908973444578,29107.04512680115,9192.780756089778,16171.48711341466,10632.367209478285,0.0,0.0,0.0,2019-03-17T21:26:04.654385,13,EyesClosed
-19643.025951746222,-9571.732231585054,7477.217313911595,-1748.9345966499563,29021.572056004057,9743.147759812804,16094.172429343753,10726.289239679485,0.0,0.0,0.0,2019-03-17T21:26:04.660240,13,EyesClosed
-19756.170482178986,-9689.995311498084,7341.8327977458,-1885.459051782972,28890.344964306947,9802.156365174815,15970.187302850165,10605.679226598648,0.0,0.0,0.0,2019-03-17T21:26:04.660924,13,EyesClosed
-19659.678001365424,-9593.502830684523,7319.034018401387,-2060.02617597892,28956.26025870565,9251.901120174065,16030.782882068503,10492.467640932518,0.0,0.0,0.0,2019-03-17T21:26:04.668368,13,EyesClosed
-19531.736616103248,-9453.022116782919,7457.503075302015,-1938.3432791642285,29102.172446509892,9129.212394858885,16167.642613368347,10604.986322520534,0.0,0.0,0.0,2019-03-17T21:26:04.669338,13,EyesClosed
-19608.939541451877,-9534.673039278156,7497.736215321567,-1748.1522855940207,29057.915992488386,9659.686346016688,16128.303543127007,10734.089998494388,0.0,0.0,0.0,2019-03-17T21:26:04.676278,13,EyesClosed
-19745.620458796082,-9683.982692239606,7367.202027702574,-1842.6331094066036,28907.421697070804,9856.739325134675,15985.453544313139,10639.184491537153,0.0,0.0,0.0,2019-03-17T21:26:04.677280,13,EyesClosed
-19685.158990044474,-9615.787519906464,7309.8250996858005,-2042.4800565815042,28935.58489508449,9350.673478922066,16010.107518447343,10497.452079946052,0.002,1.022,0.164,2019-03-17T21:26:04.683515,13,EyesClosed
-19540.096168529533,-9459.615881397234,7431.932679645143,-1977.8164598723008,29086.235652713258,9082.161972780463,16149.224775937175,10563.18856038911,0.0,0.0,0.0,2019-03-17T21:26:04.684155,13,EyesClosed
-19576.01542186921,-9499.200820827582,7504.642904358257,-1767.7100619924145,29078.479597387268,9556.778914544453,16141.62518282237,10710.933591238689,0.0,0.0,0.0,2019-03-17T21:26:04.690104,13,EyesClosed
-19722.419348051473,-9658.345241349369,7393.577086159836,-1802.5340798537827,28927.471211847213,9888.724671450218,15997.367024107818,10658.071715601887,0.0,0.0,0.0,2019-03-17T21:26:04.697819,13,EyesClosed
-19693.13856281502,-9625.71169444462,7313.714303221024,-2008.6842189650797,28925.928941479797,9467.215474512039,15991.26499787152,10509.276152762908,0.0,0.0,0.0,2019-03-17T21:26:04.698521,13,EyesClosed
-19546.175843021374,-9456.218416240026,7409.871507867755,-2004.996181129954,29071.483501372757,9074.562379665658,16123.632028535847,10530.063275106344,0.0,0.0,0.0,2019-03-17T21:26:04.706036,13,EyesClosed
-19551.316744246094,-9458.274776729915,7509.023846271497,-1796.5214605953051,29104.519379677702,9450.094038259273,16152.66694458329,10683.776221725491,0.0,0.0,0.0,2019-03-17T21:26:04.706736,13,EyesClosed
-19706.750775188302,-9638.85452018434,7423.550775474403,-1777.3883673415623,28965.40212218787,9884.76841268163,16021.350445908362,10677.629492000282,0.0,0.0,0.0,2019-03-17T21:26:04.712592,13,EyesClosed
-19721.547630017714,-9661.027450684005,7313.110806120731,-1987.874744877189,28917.301168120048,9565.496094882023,15974.21061685212,10518.306257522852,0.0,0.0,0.0,2019-03-17T21:26:04.713352,13,EyesClosed
-19567.879386887478,-9490.662454445655,7380.836591820311,-2037.6297280347023,29051.925724974364,9086.520562949248,16099.648606735303,10503.777623626904,0.0,0.0,0.0,2019-03-17T21:26:04.720682,13,EyesClosed
-19534.9105638159,-9451.524549904412,7502.7206543351,-1834.8994058250673,29121.752574652743,9344.951432341508,16168.514331402104,10662.385602281762,0.0,1.022,0.17200000000000001,2019-03-17T21:26:04.721333,13,EyesClosed
-19686.56714994516,-9618.80500540793,7442.885034428244,-1768.6041317706267,28990.614889933455,9849.005621553139,16047.680800876715,10691.800497984947,0.0,0.0,0.0,2019-03-17T21:26:04.728562,13,EyesClosed
-19735.517470302282,-9675.421974113224,7324.532547537393,-1957.6775381180692,28911.556769795036,9660.33454660589,15970.768448206003,10543.56372875735,0.0,0.0,0.0,2019-03-17T21:26:04.729399,13,EyesClosed
-19600.289416347674,-9528.593364786311,7361.636443333202,-2061.4790393685153,29028.18817236283,9119.802310443201,16076.894530879801,10488.466678675019,0.0,0.0,0.0,2019-03-17T21:26:04.737362,13,EyesClosed
-19530.14964224692,-9446.204834724049,7489.533125106469,-1883.7603192043687,29122.736051408774,9242.468684013926,16165.899177300833,10629.953221077112,0.0,0.0,0.0,2019-03-17T21:26:04.738138,13,EyesClosed
-19655.65468736347,-9562.970347758574,7466.220255639584,-1760.244579344342,29018.107535613482,9795.473193582679,16070.591338943404,10705.345655124862,0.0,0.0,0.0,2019-03-17T21:26:04.743491,13,EyesClosed
-19737.86440347009,-9655.752438992553,7336.714248265535,-1920.484235344438,28907.86873195991,9748.825102904451,15966.67807897068,10573.738583772014,0.0,0.0,0.0,2019-03-17T21:26:04.744137,13,EyesClosed
-19614.12514616551,-9547.190016173126,7341.229300645507,-2062.060184724353,29000.539064471614,9190.098546755142,16050.899452078278,10482.476411160995,0.0,0.0,0.0,2019-03-17T21:26:04.750292,13,EyesClosed
-19514.749290317213,-9439.58871836528,7465.57205505038,-1920.5065870888934,29116.99165308376,9165.042241220743,16158.545453375036,10599.130165473243,0.0,0.0,0.0,2019-03-17T21:26:04.758109,13,EyesClosed
-19625.32337013762,-9560.04226923493,7474.445697599137,-1762.077422389677,29036.815945722574,9714.805747843475,16086.997519373599,10701.59056205637,0.0,0.0,0.0,2019-03-17T21:26:04.758863,13,EyesClosed
-19732.030598167254,-9678.886494503797,7352.36046938425,-1878.1276796016311,28909.5227610496,9815.545060103543,15964.800532436435,10595.084499726832,0.002,1.02,0.17400000000000002,2019-03-17T21:26:04.765448,13,EyesClosed
-19636.45453887636,-9574.436792664146,7326.544204538371,-2052.4265828641155,28970.341857712494,9272.129448906118,16018.198849940163,10477.715489592016,0.0,0.0,0.0,2019-03-17T21:26:04.766236,13,EyesClosed
-19510.904790270903,-9435.632459596689,7454.776162478467,-1948.3792124246613,29108.38623146847,9107.978237626343,16147.838967780945,10571.212836648565,0.0,0.0,0.0,2019-03-17T21:26:04.772872,13,EyesClosed
-19580.8210469271,-9513.997675656996,7498.987913011064,-1755.8636374311016,29067.214318181792,9629.109159601827,16110.936237685233,10699.914181222222,0.0,0.0,0.0,2019-03-17T21:26:04.773625,13,EyesClosed
-19716.451432281905,-9646.14118887677,7384.904609311177,-1825.2881557092853,28928.409985114336,9866.082354316994,15980.849084955345,10626.891032086734,0.0,0.0,0.0,2019-03-17T21:26:04.780893,13,EyesClosed
-19660.639126377002,-9574.36973743078,7325.136044637686,-2028.4878645524818,28950.895840036374,9374.478086766969,16002.753794521546,10487.058518774333,0.0,0.0,0.0,2019-03-17T21:26:04.781868,13,EyesClosed
-19514.77164206167,-9424.05425596884,7436.827711680855,-1984.9243146090885,29094.595205139543,9071.142562763996,16135.456101352705,10541.507368267461,0.0,0.0,0.0,2019-03-17T21:26:04.790421,13,EyesClosed
-19546.57817442157,-9471.64111991419,7512.555421895436,-1778.4388993309617,29095.064591773105,9521.664324005167,16136.126653686364,10691.129945651288,0.0,0.0,0.0,2019-03-17T21:26:04.791311,13,EyesClosed
-19694.300853526696,-9635.434703282679,7407.234002022029,-1799.5836495856822,28948.727720824212,9875.939473621784,15999.065756686421,10651.321488776384,0.0,0.0,0.0,2019-03-17T21:26:04.796967,13,EyesClosed
-19687.61768193456,-9614.736987917066,7311.792053197868,-2017.870785936211,28926.666549046822,9467.483695445502,15975.886997686268,10492.847620588258,0.0,0.0,0.0,2019-03-17T21:26:04.797803,13,EyesClosed
-19534.463528926794,-9457.738334862988,7408.664513667169,-2016.9767161579987,29080.021867754684,9067.432173184416,16116.345359843417,10517.814519144837,-0.004,1.02,0.17200000000000001,2019-03-17T21:26:04.803629,13,EyesClosed
-19532.76479634819,-9458.788866852388,7508.375645682293,-1803.495204865361,29116.5222664502,9425.663581569623,16152.778703305568,10675.997814655044,0.0,0.0,0.0,2019-03-17T21:26:04.804314,13,EyesClosed
-19692.870341881557,-9624.817624666408,7426.99294412052,-1773.3203498506964,28974.186357758805,9872.229084042203,16019.271733674019,10672.53329426447,0.0,0.0,0.0,2019-03-17T21:26:04.810659,13,EyesClosed
-19715.691472970426,-9646.252947599049,7314.250745087951,-1979.8057651288232,28920.832743743988,9578.370699688281,15967.102762115332,10512.785376642392,0.0,0.0,0.0,2019-03-17T21:26:04.811494,13,EyesClosed
-19563.274927529685,-9480.023024084929,7378.064975507853,-2044.73758277149,29054.09384418653,9081.089089046609,16089.970301386154,10488.913713564125,0.0,0.0,0.0,2019-03-17T21:26:04.818834,13,EyesClosed
-19519.80078456411,-9433.151415962151,7502.698302590645,-1845.8964640970785,29131.96732186882,9313.435472659525,16166.43561916776,10646.985250352056,0.0,0.0,0.0,2019-03-17T21:26:04.825057,13,EyesClosed
-19663.65661187847,-9589.144240515738,7457.614834024291,-1759.6187304995933,29009.07743085354,9836.980383036183,16053.380495712818,10690.481745062083,0.0,0.0,0.0,2019-03-17T21:26:04.825808,13,EyesClosed
-19714.32801655865,-9645.24711909856,7336.69189652108,-1934.7222965624687,28926.48773509118,9683.96034049515,15975.752887219536,10549.79986546038,0.0,0.0,0.0,2019-03-17T21:26:04.833153,13,EyesClosed
-19588.44299178636,-9502.419472029147,7361.569388099836,-2049.0514694513645,29031.943265431317,9133.660392005491,16071.79833314399,10481.671748360604,0.0,0.0,0.0,2019-03-17T21:26:04.833936,13,EyesClosed
-19507.350862902505,-9418.488671599469,7492.036520485463,-1878.8205836797458,29131.05090034615,9223.581459949191,16164.714534844701,10618.285610471441,0.0,0.0,0.0,2019-03-17T21:26:04.841317,13,EyesClosed
-19628.1843934279,-9554.811961032387,7476.971444722587,-1745.6488902150263,29032.859686953987,9782.308016098503,16077.028641346533,10700.316512622418,-0.004,1.022,0.166,2019-03-17T21:26:04.842141,13,EyesClosed
-19719.200696849908,-9650.633889512288,7345.207911158552,-1897.3725315776505,28916.92118846431,9769.88044618135,15965.694602214648,10569.491752325506,0.0,0.0,0.0,2019-03-17T21:26:04.848356,13,EyesClosed
-19601.719927992814,-9520.323219337848,7341.721039023524,-2046.0786874388086,28999.935567371318,9211.690331898968,16040.505890906561,10471.702870333538,0.0,0.0,0.0,2019-03-17T21:26:04.849187,13,EyesClosed
-19488.709508026783,-9394.460546310014,7480.48066860207,-1897.4395868110166,29133.509592236234,9170.563122101203,16165.027459267076,10598.549020117405,0.0,0.0,0.0,2019-03-17T21:26:04.855906,13,EyesClosed
-19593.82976220009,-9503.291190062904,7496.708035076623,-1728.9297853624566,29062.56515533509,9724.037018303516,16100.945007913711,10709.681893549192,0.0,0.0,0.0,2019-03-17T21:26:04.856835,13,EyesClosed
-19719.312455572184,-9645.850616198852,7367.045565491387,-1842.946033828978,28928.63350255889,9847.955089563739,15975.819942452901,10604.695749842615,0.0,0.0,0.0,2019-03-17T21:26:04.863898,13,EyesClosed
-19626.418605615927,-9550.69924005261,7339.731733767001,-2021.6929342380686,28990.257262022173,9311.736740080922,16031.475786146617,10485.739765851471,0.0,0.0,0.0,2019-03-17T21:26:04.864783,13,EyesClosed
-19508.803726292103,-9420.969715234009,7454.843217711833,-1945.6299478566586,29124.34537700956,9101.116252078564,16150.543528860037,10557.600624275283,0.0,0.0,0.0,2019-03-17T21:26:04.871108,13,EyesClosed
-19574.78607592417,-9498.59732372729,7505.492270647558,-1755.0366228862551,29095.355164451026,9605.908048857218,16122.156813401798,10690.235875873075,0.0,0.0,0.0,2019-03-17T21:26:04.871880,13,EyesClosed
-19719.826545694657,-9654.098409902861,7382.8929523102,-1824.237623719886,28946.872526034418,9857.588691423976,15984.894750701756,10615.558697647893,0.0,0.0,0.0,2019-03-17T21:26:04.877424,13,EyesClosed
-19680.062792308665,-9608.299685513937,7310.54035550837,-2036.7803617454008,28955.00856101615,9374.276921066872,15988.560436792426,10463.723297562992,-0.002,1.024,0.17,2019-03-17T21:26:04.885352,13,EyesClosed
-19532.518927159184,-9450.853997570754,7417.135824815729,-1999.2964862938509,29101.367783709502,9052.367097421538,16126.8059762485,10513.970019098524,0.0,0.0,0.0,2019-03-17T21:26:04.886240,13,EyesClosed
-19552.322572746583,-9476.15617229416,7503.458261902126,-1784.2727046337968,29114.778830382686,9495.155155081173,16144.352095645918,10673.695584976147,0.0,0.0,0.0,2019-03-17T21:26:04.893393,13,EyesClosed
-19696.08899308312,-9637.759284706031,7404.37297873175,-1795.0462454612548,28972.219404246738,9876.118287577425,16012.230934170597,10646.20293929612,0.0,0.0,0.0,2019-03-17T21:26:04.894183,13,EyesClosed
-19695.32903377164,-9631.23257532508,7302.650189715647,-2011.7687596999122,28943.05037773256,9485.54390496539,15984.581826279382,10487.438498430074,0.0,0.0,0.0,2019-03-17T21:26:04.900673,13,EyesClosed
-19542.778377864168,-9466.768439622932,7390.134917513718,-2026.4985592959595,29090.147207992937,9058.17855097992,16120.391025589828,10500.581324169794,0.0,0.0,0.0,2019-03-17T21:26:04.901441,13,EyesClosed
-19537.793938850635,-9462.700422132066,7491.768299552,-1823.0976847526654,29132.727281180298,9386.480973539468,16159.886558042355,10654.026049855478,0.0,0.0,0.0,2019-03-17T21:26:04.908251,13,EyesClosed
-19686.678908667436,-9626.71752294511,7424.511900485981,-1776.6731115189925,28998.885035381918,9861.544950192565,16036.102597248864,10665.224273827585,0.0,0.0,0.0,2019-03-17T21:26:04.909133,13,EyesClosed
-19715.46795552587,-9659.216959383126,7309.802747941345,-1981.839773874256,28934.713177050733,9592.742871373042,15973.741230218558,10504.26936200492,0.0,0.0,0.0,2019-03-17T21:26:04.916149,13,EyesClosed
-19568.706401432326,-9491.333006779314,7368.565484114348,-2048.8503037512664,29065.202661180814,9084.553609437182,16095.513534011072,10472.015794755913,0.0,0.0,0.0,2019-03-17T21:26:04.916797,13,EyesClosed
-19514.65988333939,-9433.464340384524,7496.730386821078,-1849.8527228656678,29149.781662199697,9291.351949137683,16173.25290122663,10626.19812800862,-0.002,1.022,0.164,2019-03-17T21:26:04.924170,13,EyesClosed
-19655.475873407828,-9590.284179482958,7455.558473534403,-1755.8412856866464,29031.093899142015,9822.787025307063,16061.270661505541,10674.768468710003,0.0,0.0,0.0,2019-03-17T21:26:04.924833,13,EyesClosed
-19726.28619984224,-9668.850561243364,7323.236146358985,-1943.0818489887536,28931.047490960063,9684.988520740095,15965.135808603265,10521.010818601944,0.0,0.0,0.0,2019-03-17T21:26:04.930835,13,EyesClosed
-19589.31470982012,-9517.529251280934,7356.070858963831,-2057.8580567667555,29043.61087603699,9140.701191508913,16069.049068575987,10460.035259727867,0.0,0.0,0.0,2019-03-17T21:26:04.931812,13,EyesClosed
-19502.209961677785,-9424.210718180027,7489.153145450729,-1887.3142465727624,29151.949781411862,9209.544564431259,16172.694107615247,10597.00674974999,0.0,0.0,0.0,2019-03-17T21:26:04.937895,13,EyesClosed
-19622.060015447143,-9556.287176166437,7478.848991256833,-1746.0959251041324,29060.03940821164,9767.354699057902,16089.322100796951,10683.865628703312,0.0,0.0,0.0,2019-03-17T21:26:04.945657,13,EyesClosed
-19721.03353989524,-9666.838904242386,7353.008669973454,-1888.2530198398854,28946.470194634225,9783.045623665526,15983.620701267804,10565.356679601275,0.0,0.0,0.0,2019-03-17T21:26:04.946478,13,EyesClosed
-19620.450689846362,-9553.403801131702,7334.0096871864425,-2056.829876521811,29016.252340823692,9217.814709879722,16047.74785611008,10454.670841058594,0.0,0.0,0.0,2019-03-17T21:26:04.953730,13,EyesClosed
-19506.613255335484,-9424.993029235964,7459.939415447643,-1931.034258727343,29142.49499350727,9128.295973336217,16165.452142411727,10559.589929531805,0.0,0.0,0.0,2019-03-17T21:26:04.954513,13,EyesClosed
-19591.102849376544,-9521.865489705264,7496.417462398704,-1743.2125500693978,29093.94700455034,9682.507477105555,16120.882763967844,10686.503134549039,0.0,0.0,0.0,2019-03-17T21:26:04.960276,13,EyesClosed
-19722.017016651276,-9667.397697853768,7366.307957924361,-1847.4163827200393,28953.39923541537,9839.215557481713,15987.398146080752,10586.9484647451,0.0,1.024,0.16,2019-03-17T21:26:04.961094,13,EyesClosed
-19652.547794884184,-9585.769127102987,7312.328495064795,-2043.9552717155543,28989.519654455147,9301.097309720197,16017.818870284424,10445.998364209934,0.0,0.0,0.0,2019-03-17T21:26:04.969836,13,EyesClosed
-19520.337226431042,-9440.01340150993,7431.7538656895,-1966.9758638114768,29127.22875204429,9073.690661631903,16148.15189220332,10523.268344791932,0.0,0.0,0.0,2019-03-17T21:26:04.970615,13,EyesClosed
-19572.595604967548,-9499.491393505501,7495.38928215376,-1761.2951113337413,29107.402754712435,9579.890618311241,16135.8584327529,10671.30394831943,0.0,0.0,0.0,2019-03-17T21:26:04.977765,13,EyesClosed
-19710.7517374458,-9647.616404010821,7384.859905822266,-1811.6088881026374,28962.83167157551,9870.217427041225,16000.295102631462,10611.20010747911,0.0,0.0,0.0,2019-03-17T21:26:04.978577,13,EyesClosed
-19666.897614824487,-9597.257923753015,7312.842585187267,-2021.8493964492557,28967.883165822408,9407.20104064954,16001.88207648779,10463.209207440521,0.0,0.0,0.0,2019-03-17T21:26:04.984288,13,EyesClosed
-19520.8066130646,-9437.934689275586,7418.722798672056,-1998.938858382566,29114.46590596031,9060.03374576971,16138.71945604318,10505.856335861246,0.0,0.0,0.0,2019-03-17T21:26:04.985008,13,EyesClosed
-19538.129215017463,-9455.145532506172,7513.293029462461,-1780.3835010985736,29135.074214348104,9484.381614253714,16160.937090031755,10666.118343605798,0.0,0.0,0.0,2019-03-17T21:26:04.991305,13,EyesClosed
-19690.881036625033,-9626.292839800459,7418.789853905422,-1779.6458935315484,28985.921023597843,9882.890866147383,16021.775129053012,10641.017334582488,0.0,0.0,0.0,2019-03-17T21:26:04.992233,13,EyesClosed
-19686.455391222884,-9619.341447274857,7319.011666656932,-1985.0807768202756,28952.639276103888,9523.698332750599,15989.052175170444,10485.739765851471,0.0,0.0,0.0,2019-03-17T21:26:04.998167,13,EyesClosed
-19533.457700426305,-9449.468189414525,7406.831670621833,-2006.6949137085576,29097.27741447418,9077.959844822866,16120.994522690122,10491.327701965298,0.0,1.032,0.156,2019-03-17T21:26:05.006220,13,EyesClosed
-19514.793993806124,-9432.302049672848,7517.137529508774,-1799.1142629521207,29149.893420921973,9381.652996737123,16169.922491302788,10651.880282387769,0.0,0.0,0.0,2019-03-17T21:26:05.007065,13,EyesClosed
-19659.946222298888,-9589.501868427024,7453.770333977978,-1744.1513233365208,29020.07448912555,9871.782049153097,16049.535995666505,10674.768468710003,0.0,0.0,0.0,2019-03-17T21:26:05.014016,13,EyesClosed
-19703.75564143129,-9631.523148003,7333.361486597239,-1951.0167182703876,28943.184488199295,9624.839976410864,15974.411782552217,10514.282943520897,0.0,0.0,0.0,2019-03-17T21:26:05.014740,13,EyesClosed
-19563.9678316078,-9471.708175147554,7382.960007543566,-2038.5237978129148,29066.85669027051,9096.623551443046,16085.030565861533,10472.909864534124,0.0,0.0,0.0,2019-03-17T21:26:05.020661,13,EyesClosed
-19505.607426834995,-9407.20104064954,7516.176404497195,-1844.331841985207,29157.761234970243,9276.488039074902,16167.933186046266,10628.34389547633,0.0,0.0,0.0,2019-03-17T21:26:05.021440,13,EyesClosed
-19640.567259856136,-9555.974251744063,7482.425270369682,-1733.3777825090626,29043.722634759266,9820.261278183614,16062.500007450582,10688.268922361009,0.0,0.0,0.0,2019-03-17T21:26:05.028589,13,EyesClosed
-19715.33384505914,-9646.38705806578,7353.545111840381,-1905.32975260374,28943.05037773256,9716.906811822273,15966.923948159689,10546.42475204763,0.0,0.0,0.0,2019-03-17T21:26:05.029317,13,EyesClosed
-19588.040660386167,-9510.019065143952,7373.549923127881,-2035.4392570780824,29043.81204173709,9159.566063829192,16061.807103372468,10473.043975000855,0.0,0.0,0.0,2019-03-17T21:26:05.035965,13,EyesClosed
-19489.42476384935,-9404.116499914706,7516.310514963927,-1868.5164294858491,29166.05373216316,9199.218058492906,16177.656194884325,10613.47998541355,0.0,0.0,0.0,2019-03-17T21:26:05.036825,13,EyesClosed
-19604.625654772004,-9528.012219430473,7519.976201054597,-1712.9706398213673,29079.32896367657,9762.012632133083,16100.162696857775,10713.705207551147,0.002,1.028,0.164,2019-03-17T21:26:05.043178,13,EyesClosed
-19719.6030282501,-9648.95750867814,7385.306940711373,-1849.65155716557,28948.750072568666,9800.815260507496,15974.300023829941,10593.072842725855,0.0,0.0,0.0,2019-03-17T21:26:05.043832,13,EyesClosed
-19614.9298089659,-9533.667210777667,7369.951292270576,-2011.7240562110017,29024.947169416806,9250.671774229024,16042.60695488536,10490.992425798468,0.0,0.0,0.0,2019-03-17T21:26:05.051406,13,EyesClosed
-19504.020452978668,-9413.213659908017,7491.589485596358,-1901.395845579606,29154.76610121323,9132.833377460645,16161.562938876503,10591.910552014178,0.0,0.0,0.0,2019-03-17T21:26:05.051994,13,EyesClosed
-19588.465343530817,-9505.45930927507,7524.111273778829,-1724.3476777491187,29104.18410351087,9667.91178797624,16115.406586576295,10715.448643618662,0.0,0.0,0.0,2019-03-17T21:26:05.058489,13,EyesClosed
-19714.864458425578,-9641.827302196896,7399.902629840688,-1820.013144017833,28966.430302432815,9853.900653588851,15989.275692614996,10632.747189134025,0.0,0.0,0.0,2019-03-17T21:26:05.059350,13,EyesClosed
-19656.906385052967,-9573.810943819397,7340.2905273783845,-2028.6219750192138,28993.610023690468,9329.03699028933,16012.253285915052,10492.98173105499,0.0,0.0,0.0,2019-03-17T21:26:05.065699,13,EyesClosed
-19516.33626417354,-9423.942497246564,7463.3815840937605,-1960.3820991971613,29141.42210977341,9077.088126789109,16149.604755592914,10565.915473212657,0.0,0.0,0.0,2019-03-17T21:26:05.072621,13,EyesClosed
-19563.654907185424,-9478.72662290652,7531.39794247126,-1753.20377984092,29127.362862511025,9561.092801224328,16140.14996768832,10712.274695906008,0.0,0.0,0.0,2019-03-17T21:26:05.073056,13,EyesClosed
-19708.181286833442,-9637.826339939396,7420.198013806107,-1792.431091359984,28978.41083746086,9873.167857309325,16001.055061942943,10658.54110223545,0.0,0.0,0.0,2019-03-17T21:26:05.080604,13,EyesClosed
-19683.28144351023,-9603.829336622875,7342.50335007946,-1999.4082450161275,28975.661572892855,9430.156282205138,15994.9753874511,10507.59977192876,0.002,1.022,0.168,2019-03-17T21:26:05.080964,13,EyesClosed
-19537.34690396153,-9442.606203866746,7443.7791042064555,-1983.6726169195913,29123.04897583115,9058.737344591302,16126.850679737412,10538.646344977182,0.0,0.0,0.0,2019-03-17T21:26:05.088614,13,EyesClosed
-19548.746293633736,-9456.7325063625,7535.39890472876,-1771.1522306385316,29147.300618565157,9454.25146272796,16149.850624781922,10692.180477640686,0.0,0.0,0.0,2019-03-17T21:26:05.088980,13,EyesClosed
-19706.683719954937,-9630.271450313503,7442.527406516959,-1765.3631288246072,28998.326241770537,9867.266996773124,16009.861649258335,10669.694622718647,0.0,0.0,0.0,2019-03-17T21:26:05.096078,13,EyesClosed
-19719.737138716835,-9640.95558416314,7330.92514645161,-1979.1352127951639,28954.44976740477,9525.732341496032,15964.129980102776,10507.51036495094,0.0,0.0,0.0,2019-03-17T21:26:05.096721,13,EyesClosed
-19561.44208448435,-9467.617805912234,7411.6149439352685,-2015.032114390387,29097.947966807842,9064.8393708276,16095.290016566518,10503.352940482253,0.0,0.0,0.0,2019-03-17T21:26:05.103751,13,EyesClosed
-19533.614162637492,-9445.19900622356,7525.675895890701,-1814.5146148818274,29157.20244135886,9341.41985671757,16151.214081193697,10658.786971424457,0.0,0.0,0.0,2019-03-17T21:26:05.104501,13,EyesClosed
-19679.526350441738,-9609.439624481158,7464.007432938509,-1753.3602420521072,29029.238704352225,9835.03578126857,16030.715826835136,10683.038614158466,0.0,0.0,0.0,2019-03-17T21:26:05.111445,13,EyesClosed
-19727.023807409263,-9657.384116337791,7342.615108801736,-1951.4414014150384,28952.080482492507,9622.046008353951,15957.759732933013,10529.415074517141,0.0,0.0,0.0,2019-03-17T21:26:05.112296,13,EyesClosed
-19591.34871856555,-9506.621599986745,7390.358434958272,-2042.390649603683,29078.256079942716,9093.024920585744,16075.218150045652,10486.74559435196,0.0,0.0,0.0,2019-03-17T21:26:05.118541,13,EyesClosed
-19529.322627702073,-9439.164035220629,7520.758512110533,-1855.5077142128605,29174.234470633804,9240.613489224135,16164.669831355792,10634.781197879458,0.008,1.018,0.17,2019-03-17T21:26:05.119437,13,EyesClosed
-19670.98798405981,-9586.350272458825,7483.095822703341,-1749.493390261339,29055.94903897632,9778.84349570793,16056.8897195923,10693.521582308005,0.0,0.0,0.0,2019-03-17T21:26:05.124931,13,EyesClosed
-19754.7623222783,-9672.292729889481,7352.31576589534,-1916.326810875751,28948.21363070174,9702.579343626421,15953.177625319675,10552.035039905912,0.0,0.0,0.0,2019-03-17T21:26:05.133103,13,EyesClosed
-19626.50801259375,-9539.389257358225,7364.430411390115,-2047.7103647840459,29046.561306305088,9140.500025808815,16042.65165837427,10469.758268565925,0.0,0.0,0.0,2019-03-17T21:26:05.133806,13,EyesClosed
-19525.43342416685,-9432.48086362849,7505.022884013997,-1889.6611797405697,29170.948764198874,9148.166674156986,16161.093552242943,10603.824031808857,0.0,0.0,0.0,2019-03-17T21:26:05.141137,13,EyesClosed
