eeg1,eeg2,eeg3,eeg4,eeg5,eeg6,eeg7,eeg8,accx,accy,accz,iso_utc,session_id,command_name
0.0,0.0,0.0,0.0,0.0,0.0,0.0,0.0,0.0,0.0,0.0,2019-03-17T21:27:39.507790,15,EyesClosed
-19000.837981800792,-1639.9698424303344,5633.578376004502,3436.5583582590057,21673.27960411067,11938.871376379893,11047.461455757792,11068.539150779146,0.008,1.026,0.166,2019-03-17T21:27:39.519110,15,EyesClosed
-18895.203637505012,-1550.0934779755448,5640.30625108555,3262.3488619743425,21796.951806181885,11369.170113703027,11133.605078888546,10933.333448568994,0.0,0.0,0.0,2019-03-17T21:27:39.526283,15,EyesClosed
-18808.88120041862,-1465.1121455564673,5764.492543279236,3411.7255701691593,21905.58128423468,11387.342081945191,11240.379362151547,11051.708287204301,0.0,0.0,0.0,2019-03-17T21:27:39.526788,15,EyesClosed
-18913.30855051381,-1554.3179576775979,5760.938615910843,3593.467604335261,21789.151047366984,11949.98019337418,11158.63903267849,11190.266751082749,0.0,0.0,0.0,2019-03-17T21:27:39.533026,15,EyesClosed
-19014.1372697517,-1648.9328919569127,5637.601690006458,3469.9518644752343,21670.686801753858,12011.961580748748,11043.147569077919,11090.488563834258,0.0,0.0,0.0,2019-03-17T21:27:39.533703,15,EyesClosed
-18926.563134975808,-1570.053585774134,5617.127492085397,3265.9921963205575,21769.637974457502,11454.442018800024,11105.754805297232,10935.993306159176,0.0,0.0,0.0,2019-03-17T21:27:39.540837,15,EyesClosed
-18803.606188727164,-1453.1092587839676,5746.0970575925185,3376.186296485221,21910.5210197593,11333.787302230276,11235.12670220455,11027.769568892667,0.0,0.0,0.0,2019-03-17T21:27:39.541488,15,EyesClosed
-18875.958785528994,-1514.7553699917044,5777.903589952421,3589.2878281221188,21826.88079200754,11876.867637260872,11183.650634723977,11195.765280218755,0.01,1.024,0.158,2019-03-17T21:27:39.550331,15,EyesClosed
-18995.33945266479,-1626.5140922682397,5662.0992019294745,3523.0372575565884,21682.846150737543,12082.660148460884,11052.580005238058,11139.505939424747,0.0,0.0,0.0,2019-03-17T21:27:39.551286,15,EyesClosed
-18944.26571658441,-1586.4374144598742,5611.986590860676,3299.8550891703476,21745.319276490125,11571.319290556823,11082.91132246391,10969.699736797778,0.0,0.0,0.0,2019-03-17T21:27:39.556686,15,EyesClosed
-18822.940447681005,-1466.0956223125008,5715.542222922114,3335.32730762092,21887.923406114987,11294.448231988936,11205.287123356715,11000.165164490363,0.0,0.0,0.0,2019-03-17T21:27:39.557186,15,EyesClosed
-18863.575919100753,-1494.571744748562,5770.2816450931605,3554.8437899164906,21836.26852467877,11763.65605159474,11183.985910890808,11171.893617140488,0.0,0.0,0.0,2019-03-17T21:27:39.563758,15,EyesClosed
-19009.063423760348,-1646.0718686666332,5662.613292051947,3538.0352780860994,21671.066781409598,12082.928369394347,11040.04067659863,11151.598233175067,0.0,0.0,0.0,2019-03-17T21:27:39.564397,15,EyesClosed
-18983.671842059117,-1630.9620894148457,5592.406462717827,3311.768568965026,21698.872351512,11650.73503860653,11036.509100974692,10978.640434579902,0.0,0.0,0.0,2019-03-17T21:27:39.571554,15,EyesClosed
-18843.705218279985,-1498.9526866618023,5688.608370853469,3298.5586879919397,21861.16836800198,11270.889493333041,11170.440753750892,10978.863952024454,0.0,0.0,0.0,2019-03-17T21:27:39.572019,15,EyesClosed
-18853.00354397339,-1495.5328697601403,5775.66841550689,3525.6300599134042,21860.74368485733,11656.88176833174,11189.350329560082,11159.086067567596,0.0,0.0,0.0,2019-03-17T21:27:39.578704,15,EyesClosed
-18997.14994396567,-1637.8687784515357,5687.580190608524,3566.019662144144,21695.430182865883,12085.007081628692,11051.305955804106,11188.679777226422,0.0,0.0,0.0,2019-03-17T21:27:39.585632,15,EyesClosed
-18995.76413580944,-1657.0689269386444,5589.29957023854,3345.251482159076,21678.53226405767,11758.47044688111,11011.028112295642,11018.404187965893,0.01,1.03,0.16,2019-03-17T21:27:39.586286,15,EyesClosed
-18838.899593222093,-1506.284058843143,5669.877608999921,3280.230257538588,21849.254888207306,11287.51919120779,11147.06082905064,10974.59476883349,0.0,0.0,0.0,2019-03-17T21:27:39.593123,15,EyesClosed
-18808.970607396437,-1470.3648055034646,5778.305921352616,3492.415367652818,21890.98559510536,11551.649755436154,11202.537858788713,11141.763465614733,0.0,0.0,0.0,2019-03-17T21:27:39.593643,15,EyesClosed
-18948.490196286464,-1607.8056821591476,5721.241917758217,3592.148851412398,21736.49033743028,12059.302575505088,11081.078479418575,11218.809928752176,0.0,0.0,0.0,2019-03-17T21:27:39.601340,15,EyesClosed
-19003.788412068894,-1662.5451043301946,5603.090596567464,3393.777119371548,21673.011383177207,11860.237939386123,11004.836679081522,11063.085325132051,0.0,0.0,0.0,2019-03-17T21:27:39.602059,15,EyesClosed
-18872.44956164951,-1537.665908058394,5640.418009807827,3264.36051897532,21819.951751226396,11321.203270101938,11115.656628090934,10969.07388795303,0.0,0.0,0.0,2019-03-17T21:27:39.608431,15,EyesClosed
-18792.653833944063,-1457.5572559305735,5767.174752613873,3455.6020445349272,21906.721223201897,11459.426457813557,11207.16466989096,11120.685770593378,0.0,0.0,0.0,2019-03-17T21:27:39.609144,15,EyesClosed
-18912.973274346983,-1561.6493298589385,5743.191330813329,3614.8358720345345,21774.01891637074,12022.936287276303,11112.795604800654,11246.548443621212,0.0,0.0,0.0,2019-03-17T21:27:39.616092,15,EyesClosed
-19003.207266713056,-1642.339127342597,5613.662971694824,3451.8469514664357,21671.312650598604,11967.347498815954,11010.6481326399,11120.797529315654,0.0,0.0,0.0,2019-03-17T21:27:39.616924,15,EyesClosed
-18904.971349831983,-1573.2498852312428,5609.840823392967,3269.3226062443982,21787.094686877095,11396.998035549885,11088.342796366549,10986.93293177282,0.0,0.0,0.0,2019-03-17T21:27:39.625313,15,EyesClosed
-18800.76751718134,-1464.866276367459,5739.100961578008,3414.899517881813,21906.922388901996,11387.699709856477,11204.92949544543,11109.398139643448,0.002,1.032,0.16,2019-03-17T21:27:39.625812,15,EyesClosed
-18893.59431190423,-1540.4151726263967,5748.734563438245,3607.705665553292,21799.723422494346,11948.3708677734,11131.749884098756,11261.010022283795,0.0,0.0,0.0,2019-03-17T21:27:39.632103,15,EyesClosed
-18998.446345144075,-1648.239987878798,5631.54436725907,3499.3667601784186,21674.106618655518,12041.465883429753,11011.072815784551,11171.200713062372,0.0,0.0,0.0,2019-03-17T21:27:39.632746,15,EyesClosed
-18918.583562205265,-1579.2401527452653,5609.527898970592,3293.909525145236,21765.145273821985,11492.507039607412,11062.526531520669,11013.732673374734,0.0,0.0,0.0,2019-03-17T21:27:39.638176,15,EyesClosed
-18801.750993937374,-1459.7253751427384,5731.881348118943,3380.455479676185,21902.563798733212,11337.743560998864,11184.008262635263,11088.14163066645,0.0,0.0,0.0,2019-03-17T21:27:39.647004,15,EyesClosed
-18863.5535673563,-1506.7757972211598,5772.472116049781,3595.389854358418,21830.390015887024,11864.328308621443,11140.020029547219,11252.762228579788,0.0,0.0,0.0,2019-03-17T21:27:39.647724,15,EyesClosed
-18991.98669099649,-1640.886263953002,5653.06909716953,3530.927423349312,21674.866577966997,12086.348186296009,10999.114632500963,11197.665178497457,0.0,0.0,0.0,2019-03-17T21:27:39.653437,15,EyesClosed
-18929.714730944008,-1605.6822664358936,5602.44239597826,3308.527566019007,21731.68471237239,11592.95577918956,11023.254516512694,11028.887156115432,0.0,0.0,0.0,2019-03-17T21:27:39.654115,15,EyesClosed
-18807.920075407037,-1476.1986108062997,5711.965943809265,3339.9317669787133,21886.783467147765,11292.525981965779,11152.201730275361,11049.00372612521,0.0,0.0,0.0,2019-03-17T21:27:39.661678,15,EyesClosed
-18830.20476462898,-1488.0450353676124,5791.135822669962,3578.491935550205,21863.47059768088,11758.336336414379,11153.609890176045,11233.204452181393,0.0,0.0,0.0,2019-03-17T21:27:39.662330,15,EyesClosed
-18973.188873909578,-1628.8386736915916,5693.011664511164,3574.178048870331,21701.263988168717,12106.174183627867,11014.492632686215,11222.095635187106,0.008,1.024,0.16,2019-03-17T21:27:39.668082,15,EyesClosed
-18962.594147037762,-1621.0826183656,5616.389884518371,3339.8200082564367,21718.92186628841,11687.637768702241,11002.579152891536,11043.192272566828,0.0,0.0,0.0,2019-03-17T21:27:39.668858,15,EyesClosed
-18824.23684885941,-1484.736977188227,5705.528641406137,3309.4439875416742,21881.32964150067,11275.292786990738,11135.706142867344,11025.936725847332,0.0,0.0,0.0,2019-03-17T21:27:39.676081,15,EyesClosed
-18822.02402615834,-1471.9964828487018,5795.159136671918,3531.0615338160437,21884.43653397996,11631.333724419323,11160.40482049046,11196.636998252512,0.0,0.0,0.0,2019-03-17T21:27:39.676543,15,EyesClosed
-18955.59805102325,-1604.274106535209,5721.174862524851,3591.0312641896326,21726.14147974747,12086.571703740563,11033.871595128965,11238.770036550766,0.0,0.0,0.0,2019-03-17T21:27:39.684154,15,EyesClosed
-18974.28410938789,-1634.7171824833374,5625.889375911877,3381.6177703878607,21704.795563792653,11790.791069363484,10995.538353388114,11076.138743893951,0.0,0.0,0.0,2019-03-17T21:27:39.684875,15,EyesClosed
-18843.59345955771,-1508.9662681777797,5684.562705107058,3290.1544320767443,21860.6095743906,11290.581380198168,11116.170718213407,11011.27398148465,0.0,0.0,0.0,2019-03-17T21:27:39.691339,15,EyesClosed
-18800.81222067025,-1451.8799128389255,5797.1037384395295,3498.36093167793,21912.33151106018,11531.689647637564,11180.096707355584,11178.39797477698,0.0,0.0,0.0,2019-03-17T21:27:39.691816,15,EyesClosed
-18933.2686583124,-1600.541365211173,5744.9794703697535,3606.47631960825,21758.372695252026,12051.166540523356,11058.771438452177,11262.105257762107,0.0,0.0,0.0,2019-03-17T21:27:39.698024,15,EyesClosed
-18984.252987414955,-1668.3118543996638,5628.683343968791,3417.4699684941734,21690.37868861898,11884.690747820228,10982.149658459384,11112.348569911548,0.0,0.0,0.0,2019-03-17T21:27:39.705665,15,EyesClosed
-18870.3037941818,-1546.8748267739807,5657.539446060592,3277.0563098259345,21830.79234728722,11332.602659774144,11087.895761477443,11006.714225615768,0.006,1.026,0.17,2019-03-17T21:27:39.706392,15,EyesClosed
-18799.448764258475,-1462.899322855392,5774.19320037284,3449.2765008540755,21913.80672619423,11431.039742355317,11172.74298342979,11142.590480159579,0.0,0.0,0.0,2019-03-17T21:27:39.713668,15,EyesClosed
-18916.88482962666,-1568.1760392398883,5756.669432719878,3611.796034788613,21784.50188452028,11991.465031083231,11077.725717750278,11269.414278198992,0.0,0.0,0.0,2019-03-17T21:27:39.714281,15,EyesClosed
-19005.66595860314,-1674.302121913686,5634.383038804894,3464.118059172399,21682.846150737543,11970.74496397316,10974.483010111215,11150.97238433032,0.0,0.0,0.0,2019-03-17T21:27:39.720857,15,EyesClosed
-18905.64190216564,-1593.567620941117,5632.036105637087,3279.8279261383923,21797.26473060426,11402.273047241337,11048.646098213923,11009.374083205948,0.0,0.0,0.0,2019-03-17T21:27:39.721318,15,EyesClosed
-18799.359357280657,-1480.2889800416208,5756.6023774865125,3412.0161428470783,21914.074947127694,11358.597738575667,11153.654593664956,11111.34274141106,0.0,0.0,0.0,2019-03-17T21:27:39.728689,15,EyesClosed
-18883.960710043993,-1550.5628646091063,5771.376880571471,3614.254726678697,21813.581504056634,11918.844213347938,11083.648930030935,11263.915749062986,0.0,0.0,0.0,2019-03-17T21:27:39.729574,15,EyesClosed
-18991.494952618476,-1655.9736914603343,5657.5170943161365,3518.253984243153,21687.24944439524,12044.48336893122,10960.870797737933,11181.102535856073,0.0,0.0,0.0,2019-03-17T21:27:39.736522,15,EyesClosed
-18923.970332618992,-1591.4889087067734,5631.387905047883,3310.2710020865206,21772.811922170153,11504.532278124367,11008.904696572388,11018.650057154902,0.0,0.0,0.0,2019-03-17T21:27:39.737347,15,EyesClosed
-18801.25925555936,-1472.4658694822633,5750.008612872197,3386.870430334858,21910.543371503758,11311.837889175164,11128.799453830654,11075.535246793657,0.0,0.0,0.0,2019-03-17T21:27:39.743589,15,EyesClosed
-18854.858738763185,-1515.381218836453,5799.025988462686,3611.8407382775235,21841.744702070322,11827.112654103357,11089.169810911395,11242.234556941337,0.004,1.028,0.168,2019-03-17T21:27:39.744230,15,EyesClosed
-18986.443458371577,-1651.436287335907,5691.491745888204,3565.6843859773144,21687.47296183979,12077.63100595844,10950.164312143841,11195.474707540836,0.0,0.0,0.0,2019-03-17T21:27:39.751048,15,EyesClosed
-18941.89643167215,-1618.9592026423459,5635.0982946274635,3338.9706419671347,21734.992770551777,11591.324101844324,10964.894111739888,11017.376007720948,0.0,0.0,0.0,2019-03-17T21:27:39.752036,15,EyesClosed
-18800.320482292234,-1476.9138666288695,5742.096095335019,3357.2767206760313,21891.499685227835,11270.822438099676,11095.852982503531,11028.708342159789,0.0,0.0,0.0,2019-03-17T21:27:39.758167,15,EyesClosed
-18821.62169475814,-1474.3881195054198,5820.953049773342,3588.192592643809,21865.616365148588,11712.805832958918,11095.316540636604,11203.78955647821,0.0,0.0,0.0,2019-03-17T21:27:39.758991,15,EyesClosed
-18964.80696973884,-1630.827978948114,5724.929955593343,3595.5686683140602,21701.688671313368,12078.77094492566,10953.40531508986,11196.189963363406,0.0,0.0,0.0,2019-03-17T21:27:39.766385,15,EyesClosed
-18964.27052787191,-1650.631624535516,5640.596823763469,3368.5419998815064,21713.132764474485,11686.631940201753,10938.45199804926,11014.045597797109,0.0,0.0,0.0,2019-03-17T21:27:39.773304,15,EyesClosed
-18816.369034811145,-1505.0547128981011,5731.635478929935,3333.3827058533084,21882.536635701257,11264.765115352287,11079.33504335106,10990.084527741019,0.0,0.0,0.0,2019-03-17T21:27:39.774154,15,EyesClosed
-18815.743185966396,-1486.8827446559364,5819.857814295032,3551.0439933590883,21891.030298594273,11602.790546749897,11107.520593109202,11154.705125654356,0.0,0.0,0.0,2019-03-17T21:27:39.780698,15,EyesClosed
-18952.55821377733,-1624.1001038670665,5744.934766880842,3624.0000872612104,21732.221154239316,12078.458020503285,10979.266283424651,11194.446527295891,0.0,0.0,0.0,2019-03-17T21:27:39.781498,15,EyesClosed
-18979.84969375726,-1661.6733862964377,5638.473408040215,3412.4631777361847,21696.033679966175,11808.650113183274,10926.627925232402,11007.138908760418,0.0,1.02,0.162,2019-03-17T21:27:39.790298,15,EyesClosed
-18847.572070070753,-1538.4258673698746,5698.711359347268,3314.674295744216,21853.971106287376,11303.299522793237,11050.344830792526,10908.9253436238,0.0,0.0,0.0,2019-03-17T21:27:39.791041,15,EyesClosed
-18811.47400277543,-1495.8904976714252,5805.507994354724,3512.6883998737812,21905.469525512402,11511.058987505316,11112.929715267386,11028.66363867088,0.0,0.0,0.0,2019-03-17T21:27:39.797274,15,EyesClosed
-18937.470786269998,-1613.0359903616895,5761.85503743351,3639.042811279632,21761.144311564483,12048.372572466442,11002.17682149134,11084.520648064692,0.0,0.0,0.0,2019-03-17T21:27:39.797990,15,EyesClosed
-18986.555217093854,-1685.5897528636162,5640.373306318916,3451.735192744159,21684.075496682584,11906.751919597617,10918.626000717402,10896.162497539819,0.0,0.0,0.0,2019-03-17T21:27:39.803633,15,EyesClosed
-18850.880128250137,-1567.505486906229,5664.714356030746,3296.2788100574985,21823.41627161697,11350.707572782943,11019.544126933113,10740.54965264197,0.0,0.0,0.0,2019-03-17T21:27:39.804587,15,EyesClosed
-18759.886176572585,-1470.4318607368305,5791.7616715147105,3461.122925415388,21920.400490808548,11420.467367227957,11113.019122245209,10831.633011297346,0.0,0.0,0.0,2019-03-17T21:27:39.811374,15,EyesClosed
-18879.60211987521,-1585.1633650259216,5774.5061247952135,3626.9058140404004,21790.246282845295,11977.785763476582,11017.04073155412,10922.537555997082,0.0,0.0,0.0,2019-03-17T21:27:39.812039,15,EyesClosed
-18980.90022574666,-1688.5848866206275,5655.21486463724,3490.537821118572,21682.53322631517,11986.547647303063,10907.49483197866,10779.687557183213,0.0,0.0,0.0,2019-03-17T21:27:39.819524,15,EyesClosed
-18893.460201437498,-1605.6375629469828,5647.749381989167,3298.513984503029,21791.162704367962,11418.25454452688,10976.762888045656,10605.545116131916,0.0,0.0,0.0,2019-03-17T21:27:39.820181,15,EyesClosed
-18782.14851405007,-1486.5921719780174,5772.874447449976,3425.002506375612,21920.065214641716,11345.656078536043,11094.333063880571,10683.128021136286,0.004,1.02,0.168,2019-03-17T21:27:39.826699,15,EyesClosed
-18869.96851801497,-1561.314053692109,5786.553715056624,3628.0681047520766,21821.248152404805,11896.44776540372,11026.875499114454,10818.579592535449,0.0,0.0,0.0,2019-03-17T21:27:39.832986,15,EyesClosed
-18997.060536987847,-1692.3846831780295,5662.903864729866,3533.8107983840464,21678.778133246677,12038.38134269492,10890.887485848367,10717.035617474989,0.0,0.0,0.0,2019-03-17T21:27:39.833785,15,EyesClosed
-18930.60880072222,-1630.5374062701949,5618.535651986081,3309.488691030585,21750.057846314652,11495.949208253529,10924.504509509148,10523.22364130302,0.0,0.0,0.0,2019-03-17T21:27:39.840971,15,EyesClosed
-18799.135839836104,-1510.8885182009362,5741.358487767993,3379.740223853615,21899.032223109272,11282.579455683168,11055.619842483979,10561.221606877043,0.0,0.0,0.0,2019-03-17T21:27:39.841664,15,EyesClosed
-18837.849061232693,-1537.3082801471091,5807.7878722891655,3617.4286743913503,21854.351085943115,11798.077738055914,11038.386647508938,10723.07058847792,0.0,0.0,0.0,2019-03-17T21:27:39.848886,15,EyesClosed
-18969.523187818908,-1680.0912237276107,5699.001932025187,3581.062386162566,21700.034642223676,12078.323910036554,10900.58814294197,10665.201922083132,0.0,0.0,0.0,2019-03-17T21:27:39.849523,15,EyesClosed
-18938.36485604821,-1661.8745519965355,5629.756227702645,3345.027964714523,21735.797433352167,11606.389177607201,10906.77957615609,10462.896283018146,0.0,0.0,0.0,2019-03-17T21:27:39.856130,15,EyesClosed
-18804.76847943884,-1529.8875009879473,5732.060162074586,3348.224264171632,21895.925330629987,11264.474542674368,11042.342906277527,10453.195625924543,0.0,0.0,0.0,2019-03-17T21:27:39.856963,15,EyesClosed
-18827.96959018345,-1532.3685446224863,5809.620715334501,3578.246066361197,21877.4627897099,11690.83406815935,11051.842397671033,10617.659761626694,0.0,0.0,0.0,2019-03-17T21:27:39.863597,15,EyesClosed
-18957.09561790176,-1654.5878833041054,5722.426560214349,3612.533642355638,21723.63808436848,12097.032320145647,10926.806739188045,10630.310848988396,0.006,1.016,0.17,2019-03-17T21:27:39.864353,15,EyesClosed
-18962.102408659746,-1670.2788079117308,5626.9399079012765,3384.9481803117014,21718.497183143758,11723.579373786375,10899.828183630489,10441.39390485214,0.0,0.0,0.0,2019-03-17T21:27:39.871786,15,EyesClosed
-18825.577953526732,-1555.1002687335335,5701.237106470717,3328.375915095319,21876.546368187235,11271.068307288684,11025.310877002583,10392.644750195117,0.0,0.0,0.0,2019-03-17T21:27:39.872497,15,EyesClosed
-18802.980339882415,-1534.6260708124723,5807.7208170558,3552.2062840707645,21902.496743499847,11589.379500076711,11070.014365913197,10563.926167956135,0.0,0.0,0.0,2019-03-17T21:27:39.879122,15,EyesClosed
-18937.537841503363,-1660.1758194179322,5751.32736579506,3643.1555322594086,21753.477663216312,12085.565875240074,10953.561777301047,10635.183529279653,0.0,0.0,0.0,2019-03-17T21:27:39.879800,15,EyesClosed
-18978.17331292311,-1708.1873665079318,5636.797027206067,3434.1443698578323,21705.935502759876,11830.86774717185,10889.34521548095,10485.873876318203,0.0,0.0,0.0,2019-03-17T21:27:39.885480,15,EyesClosed
-18844.465177591464,-1583.308170236131,5682.036957983609,3316.2389178560875,21851.244193463826,11300.416147758502,10995.627760365935,10497.966170068523,0.0,0.0,0.0,2019-03-17T21:27:39.893220,15,EyesClosed
-18788.138781564092,-1517.9069659599027,5800.031816963175,3513.1354347628876,21915.997197150853,11487.634359316155,11065.834589700054,10852.040153985043,0.0,0.0,0.0,2019-03-17T21:27:39.894091,15,EyesClosed
-18905.328977743266,-1621.3061358101531,5764.693708979334,3651.783305619157,21775.382372782515,12030.580583880019,10956.534559313603,11101.351511639537,0.0,0.0,0.0,2019-03-17T21:27:39.901382,15,EyesClosed
-18965.90220521715,-1688.8084040651804,5649.135190145396,3480.6359983248713,21697.307729400127,11923.046341305535,10867.641671614847,11009.46349018377,0.0,0.0,0.0,2019-03-17T21:27:39.902064,15,EyesClosed
-18849.047285204804,-1606.4645774918292,5667.307158387561,3318.965830679635,21830.255905420294,11361.078782210207,10957.36157385845,10903.516221465616,0.008,1.02,0.17200000000000001,2019-03-17T21:27:39.908483,15,EyesClosed
-18765.317650475223,-1528.6581550429053,5788.833592991065,3471.2035621647315,21925.451985055446,11399.702596628977,11048.71315344729,11033.446911984314,0.0,0.0,0.0,2019-03-17T21:27:39.909281,15,EyesClosed
-18875.511750639886,-1635.2312726058094,5781.770441743189,3643.0661252815876,21801.533913795225,11961.51369351312,10959.753210515168,11171.580692718113,0.0,0.0,0.0,2019-03-17T21:27:39.915971,15,EyesClosed
-18969.500836074454,-1714.6023171666047,5659.5734548060245,3511.5484609065606,21686.57889206158,11996.717691030228,10849.33559290595,11070.57315952458,0.0,0.0,0.0,2019-03-17T21:27:39.916632,15,EyesClosed
-18875.511750639886,-1622.4237230329184,5648.598748278469,3317.356505078853,21794.82839045863,11435.174815079548,10920.235326318185,10928.192547344273,0.0,0.0,0.0,2019-03-17T21:27:39.924165,15,EyesClosed
-18766.837569098185,-1530.3568876215086,5766.325386324571,3425.024858120067,21917.76298496282,11327.797034716254,11032.41873173937,11014.716150130767,0.0,0.0,0.0,2019-03-17T21:27:39.924808,15,EyesClosed
-18840.01718044486,-1596.8086238871365,5790.957008714319,3636.1594362448977,21828.847745519608,11876.487657605132,10978.12634445743,11177.213332320849,0.0,0.0,0.0,2019-03-17T21:27:39.932213,15,EyesClosed
-18954.81573996732,-1704.7451978618144,5673.722109046234,3556.4531155172726,21693.73145028728,12054.787523125116,10853.29185167454,11109.15227045444,0.0,0.0,0.0,2019-03-17T21:27:39.933085,15,EyesClosed
-18887.447582179022,-1647.569435545139,5632.617250992925,3335.3049558764646,21766.44167500039,11529.990915058961,10891.11100329292,10942.20709111775,0.0,0.0,0.0,2019-03-17T21:27:39.938614,15,EyesClosed
-18755.482882914886,-1536.9730039802796,5747.7063831933,3393.57595367145,21916.421880295504,11290.223752286882,11024.126234546451,10993.347882431493,0.0,0.0,0.0,2019-03-17T21:27:39.939364,15,EyesClosed
-18806.690729461996,-1565.8067543276256,5801.015293719208,3619.57444185906,21866.398676204524,11783.169124504224,11005.283713970628,11169.703146183867,0.006,1.028,0.158,2019-03-17T21:27:39.945760,15,EyesClosed
-18948.244327097455,-1702.0182850382669,5696.967923279753,3600.3295898830406,21709.847058039555,12091.690253220828,10871.19559898324,11147.530215684203,0.0,0.0,0.0,2019-03-17T21:27:39.954925,15,EyesClosed
-18920.438756995056,-1697.2573634692865,5625.554099745047,3370.5983603713944,21740.379540965503,11639.067428000859,10871.687337361258,10972.113725198953,0.0,0.0,0.0,2019-03-17T21:27:39.955688,15,EyesClosed
-18775.15241803556,-1554.8320478000699,5725.309935249083,3368.966683026157,21904.083717356174,11277.57266492518,11013.620914652458,10979.31098691356,0.0,0.0,0.0,2019-03-17T21:27:39.961432,15,EyesClosed
-18789.502237975867,-1565.7173473498044,5795.807337261122,3590.6512845338925,21886.224673536384,11677.937111608639,11021.622839167458,11153.408724475948,0.0,0.0,0.0,2019-03-17T21:27:39.962101,15,EyesClosed
-18927.054873353823,-1699.4478344259066,5705.573344895047,3627.57636637406,21723.01223552373,12093.545448010618,10887.422965457794,11170.619567706533,0.0,0.0,0.0,2019-03-17T21:27:39.968326,15,EyesClosed
-18931.3687600337,-1704.0299420392446,5612.947715872254,3409.0433608345224,21714.339758675073,11745.774656030495,10855.48232263116,10993.236123709217,0.0,0.0,0.0,2019-03-17T21:27:39.969317,15,EyesClosed
-18787.691746674987,-1563.795097326648,5693.07871974453,3351.934653751213,21879.47444671088,11282.288883005249,10986.687062583813,10948.644393520879,0.0,0.0,0.0,2019-03-17T21:27:39.976172,15,EyesClosed
-18764.80356035275,-1526.5794428085617,5800.367093130004,3575.7203192377474,21913.42674653849,11575.119087114226,11033.916298617876,11112.48268037828,0.0,0.0,0.0,2019-03-17T21:27:39.976816,15,EyesClosed
-18896.947073572526,-1658.5441420726947,5742.1631505683845,3693.6481229839474,21757.992715596287,12075.462886746274,10907.8748116344,11170.910140384452,0.0,0.0,0.0,2019-03-17T21:27:39.984306,15,EyesClosed
-18936.442606025055,-1714.4235032109623,5634.740666716179,3525.250080257664,21705.8237440376,11854.046506172002,10838.517348589581,11008.032978538631,0.006,1.028,0.16,2019-03-17T21:27:39.984954,15,EyesClosed
-18816.570200511243,-1589.633713916983,5681.053481227575,3424.711933697693,21851.870042308576,11317.76110145582,10946.878605708911,10912.188698314274,0.0,0.0,0.0,2019-03-17T21:27:39.991522,15,EyesClosed
-18759.796769594763,-1528.1664166648886,5800.545907085647,3620.379104659451,21922.43449955398,11473.351594609214,11021.220507767262,11056.46920877328,0.0,0.0,0.0,2019-03-17T21:27:39.992283,15,EyesClosed
-18883.89365481063,-1641.7356302423038,5768.717022981289,3770.202847743374,21784.16660835345,12024.94794427728,10913.999189615153,11163.310547269648,0.0,0.0,0.0,2019-03-17T21:27:39.999132,15,EyesClosed
-18957.162673135124,-1713.5741369216607,5646.631794766402,3607.1021684529983,21692.61386306451,11944.280498538077,10815.338589589428,11029.065970071075,0.0,0.0,0.0,2019-03-17T21:27:39.999772,15,EyesClosed
-18841.58180255673,-1610.8008159161589,5655.751306504168,3443.8226752069804,21821.404614615993,11379.407212663558,10905.282009277584,10904.276180777095,0.0,0.0,0.0,2019-03-17T21:27:40.006064,15,EyesClosed
-18756.86869107112,-1521.1926723948327,5777.836534719055,3594.741653769214,21927.418938567513,11397.06509078325,11009.105862272485,11024.863842113476,0.0,0.0,0.0,2019-03-17T21:27:40.006705,15,EyesClosed
-18871.3543261712,-1614.4441502623738,5776.629540518468,3778.428289702927,21810.742832510812,11963.927681914292,10927.276125821607,11163.310547269648,0.0,0.0,0.0,2019-03-17T21:27:40.014409,15,EyesClosed
-18969.925519219105,-1717.7092096458925,5658.657033283357,3662.489791213249,21690.15517117443,12033.083979259012,10811.404682565295,11066.102810633518,0.0,0.0,0.0,2019-03-17T21:27:40.020336,15,EyesClosed
-18878.149256485613,-1635.6783074949155,5636.886434183888,3460.16180040381,21784.97127115384,11474.60329229871,10869.742735593645,10911.182869813785,0.0,0.0,0.0,2019-03-17T21:27:40.021117,15,EyesClosed
-18753.47122591391,-1522.2879078731428,5760.513932766192,3558.1071446069654,21920.311083830726,11345.030229691296,10994.733690587724,10993.929027787332,0.012,1.028,0.164,2019-03-17T21:27:40.029768,15,EyesClosed
-18834.697465264497,-1589.41019647243,5788.341854613049,3763.1620482399526,21833.876888022052,11880.421564629265,10942.050628906563,11151.709991897344,0.0,0.0,0.0,2019-03-17T21:27:40.030431,15,EyesClosed
-18966.773923250905,-1716.725732889859,5674.16914393534,3696.330332318584,21693.10560144253,12091.600846243007,10813.908077944288,11096.38942437046,0.0,0.0,0.0,2019-03-17T21:27:40.036677,15,EyesClosed
-18905.373681232177,-1676.179668447932,5627.252832323651,3477.126774445388,21757.00923884025,11580.014119149939,10847.033363227054,10929.041913633575,0.0,0.0,0.0,2019-03-17T21:27:40.037321,15,EyesClosed
-18761.540205662277,-1540.124599948478,5737.335173766038,3520.22093775522,21908.48701101387,11306.629932717078,10978.41691713535,10964.603539061969,0.0,0.0,0.0,2019-03-17T21:27:40.043769,15,EyesClosed
-18776.471170958423,-1565.7620508387151,5801.171755930395,3748.6781178329134,21869.952603572918,11784.063194282437,10970.303233898072,11140.511767925236,0.0,0.0,0.0,2019-03-17T21:27:40.044460,15,EyesClosed
-18896.63414915015,-1699.2913722147193,5700.208926225773,3738.306908405651,21714.58562786408,12117.327704111065,10838.651459056313,11125.424340417903,0.0,0.0,0.0,2019-03-17T21:27:40.051356,15,EyesClosed
-18875.243529706422,-1688.3166656871638,5617.127492085397,3505.4017311813514,21729.181316993396,11677.445373230621,10826.156833905798,10937.915556182332,0.0,0.0,0.0,2019-03-17T21:27:40.052115,15,EyesClosed
-18745.111673487627,-1554.4967716332403,5710.714246119767,3492.2589054416308,21892.080830583673,11288.346205752636,10961.139018671396,10931.254736334651,0.0,0.0,0.0,2019-03-17T21:27:40.058526,15,EyesClosed
-18754.208833480934,-1560.732908336271,5795.114433183006,3715.619887783514,21890.158580560517,11666.917701592172,10982.440231137303,11104.950142496842,0.0,0.0,0.0,2019-03-17T21:27:40.059164,15,EyesClosed
-18882.776067587864,-1674.726805058337,5723.365333481471,3767.69945236438,21737.160889763938,12106.1071283945,10855.14704646433,11140.198843502862,0.014,1.02,0.168,2019-03-17T21:27:40.066663,15,EyesClosed
-18893.013166548393,-1708.8132153526803,5627.811625935034,3545.344298522985,21714.853848797542,11784.130249515802,10809.504784286593,10964.849408250977,0.0,0.0,0.0,2019-03-17T21:27:40.067660,15,EyesClosed
-18753.694743358465,-1577.7202341223044,5699.292504703106,3468.051966196533,21876.8145891207,11296.750461667832,10934.004000902654,10909.193564557263,0.0,0.0,0.0,2019-03-17T21:27:40.073709,15,EyesClosed
-18723.5198883438,-1530.2898323881427,5809.553660101135,3675.409099508417,21919.551124519247,11556.991822360973,10987.022338750641,11075.915226449399,0.0,0.0,0.0,2019-03-17T21:27:40.081551,15,EyesClosed
-18858.792645787318,-1668.9377032444124,5752.80258092911,3773.399147200483,21764.45236974387,12066.902168619892,10858.00806975461,11145.16093077194,0.0,0.0,0.0,2019-03-17T21:27:40.082199,15,EyesClosed
-18910.73809990145,-1720.9725643363672,5638.741628973678,3578.156659383376,21701.420450379905,11879.102811706402,10780.492219983606,10985.36830966095,0.0,0.0,0.0,2019-03-17T21:27:40.088170,15,EyesClosed
-18786.2835867743,-1593.2770482631981,5678.393623637393,3453.121000900388,21849.32194344067,11336.201290631449,10891.088651548464,10887.15474452433,0.0,0.0,0.0,2019-03-17T21:27:40.088819,15,EyesClosed
-18719.742443530853,-1525.4842073302518,5799.405968118425,3637.5452444011266,21928.692988001465,11463.31566134878,10974.907693255866,11033.245746284218,0.0,0.0,0.0,2019-03-17T21:27:40.096204,15,EyesClosed
-18848.197918915503,-1640.7074499973596,5772.650930005423,3786.139641540008,21790.02276540074,12017.884793029403,10871.307357705517,11147.887843595487,0.0,0.0,0.0,2019-03-17T21:27:40.096850,15,EyesClosed
-18937.56019324782,-1723.9006428600126,5651.616233779935,3624.022439005666,21690.95983397482,11961.580748746484,10767.461152966162,11015.252591997694,0.0,0.0,0.0,2019-03-17T21:27:40.104558,15,EyesClosed
-18829.131880895126,-1631.2526620927647,5666.524847331625,3453.121000900388,21818.968274470364,11395.567523904745,10855.303508675517,10886.73006137968,0.016,1.02,0.17,2019-03-17T21:27:40.105268,15,EyesClosed
-18742.071836241703,-1545.1090389620113,5789.727662769278,3587.209115887775,21925.809612966732,11374.601587605666,10958.009774447653,10996.879458055433,0.0,0.0,0.0,2019-03-17T21:27:40.110955,15,EyesClosed
-18833.512822808367,-1625.7988364456698,5804.703331554334,3780.752871126279,21825.40557687349,11939.69839092474,10892.58621842697,11145.362096472038,0.0,0.0,0.0,2019-03-17T21:27:40.111289,15,EyesClosed
-18951.88766144367,-1741.0891343461437,5681.567571350047,3666.4236982373836,21697.173618933397,12032.927517047825,10774.166676302753,11051.931804648853,0.0,0.0,0.0,2019-03-17T21:27:40.118420,15,EyesClosed
-18878.573939630263,-1677.1407934595102,5649.805742479056,3452.9868904336563,21782.959614152864,11475.69852777702,10825.866261227879,10889.72519513669,0.0,0.0,0.0,2019-03-17T21:27:40.118723,15,EyesClosed
-18755.706400359442,-1551.7922105541481,5771.622749760479,3541.6562606878592,21922.702720487443,11311.949647897442,10952.645355778379,10964.871759995433,0.0,0.0,0.0,2019-03-17T21:27:40.126576,15,EyesClosed
-18820.459404046465,-1607.3586472700415,5806.29030541066,3751.270920189729,21845.030408505252,11830.57717449393,10906.332541266984,11126.541927640668,0.0,0.0,0.0,2019-03-17T21:27:40.126915,15,EyesClosed
-18947.66318174162,-1724.9288231049566,5689.45773714277,3691.6811694718804,21692.01036596422,12058.34145049351,10768.042298321998,11071.556636280613,0.0,0.0,0.0,2019-03-17T21:27:40.133866,15,EyesClosed
-18906.02188182138,-1688.3837209205296,5634.338335315983,3476.4338703672734,21750.102549803563,11568.547674244366,10795.601999235392,10906.556058711536,0.0,0.0,0.0,2019-03-17T21:27:40.141017,15,EyesClosed
-18784.853075129162,-1579.3072079786311,5742.252557546206,3510.766149850625,21907.123554602094,11276.768002124787,10931.791178201578,10935.613326503435,0.0,0.0,0.0,2019-03-17T21:27:40.141864,15,EyesClosed
-18809.328235307723,-1597.7473971542595,5805.418587376904,3730.4167426129275,21871.606632662613,11733.190623902157,10921.643486218869,11105.710101808323,0.01,1.016,0.17200000000000001,2019-03-17T21:27:40.148214,15,EyesClosed
-18945.60682125173,-1726.8734248725684,5709.775472852644,3729.276803645707,21713.736261574777,12093.836020688537,10786.303673541985,11100.993883728253,0.0,0.0,0.0,2019-03-17T21:27:40.149114,15,EyesClosed
-18935.615591480208,-1727.0522388282109,5619.854404908944,3493.421196153307,21719.547715133158,11677.847704630818,10768.51168495556,10919.475367006704,0.0,0.0,0.0,2019-03-17T21:27:40.156391,15,EyesClosed
-18795.29133978979,-1584.3587022255306,5708.769644352155,3465.414460350807,21884.168313046495,11267.827304342665,10907.226611045196,10903.270352276606,0.0,0.0,0.0,2019-03-17T21:27:40.157253,15,EyesClosed
-18791.469191487933,-1568.8018880846369,5807.4972996112465,3696.956181163333,21896.797048663742,11638.285116944924,10943.011753918143,11083.850095731032,0.0,0.0,0.0,2019-03-17T21:27:40.164458,15,EyesClosed
-18942.634039239176,-1714.2893927442306,5721.599545669502,3748.2310829438075,21727.482584414793,12088.516305508174,10804.721510973157,11117.578878114091,0.0,0.0,0.0,2019-03-17T21:27:40.165207,15,EyesClosed
-18961.52126330391,-1743.659584958504,5617.686285696779,3534.928385606812,21699.87818001249,11789.740537374084,10758.252234250574,10949.583166788003,0.0,0.0,0.0,2019-03-17T21:27:40.171119,15,EyesClosed
-18811.362244053154,-1608.0291996037006,5684.294484173594,3455.222064879187,21861.905975569007,11296.012854100807,10883.91374157831,10889.948712581243,0.0,0.0,0.0,2019-03-17T21:27:40.171812,15,EyesClosed
-18767.686935387486,-1552.8650942880029,5802.401101875437,3667.1389540599534,21915.572514006202,11541.010325075427,10949.046724921076,11052.557653493603,0.0,0.0,0.0,2019-03-17T21:27:40.179194,15,EyesClosed
-18897.751736372917,-1672.4916306128064,5758.457572276303,3783.1445077829967,21767.000468611775,12070.880779132936,10831.610659552893,11134.320334711116,0.0,0.0,0.0,2019-03-17T21:27:40.179838,15,EyesClosed
-18963.13058890469,-1738.563387222694,5637.422876050816,3592.8417554905127,21693.03854620916,11901.320445694977,10745.355277699862,10977.41108863486,0.012,1.022,0.166,2019-03-17T21:27:40.187171,15,EyesClosed
-18825.577953526732,-1609.9290978824017,5670.8387340115,3454.8867887123574,21835.441510133925,11352.026325705807,10851.235491184652,10874.146029251342,0.0,0.0,0.0,2019-03-17T21:27:40.187815,15,EyesClosed
-18753.13594974708,-1534.246091156732,5793.326293626582,3626.1905582178306,21921.316912331215,11450.888091431629,10940.530710283603,11009.284676228128,0.0,0.0,0.0,2019-03-17T21:27:40.194122,15,EyesClosed
-18874.81884656177,-1651.503342569273,5773.0979648945295,3787.3466357405946,21786.871169432543,12014.464976127741,10844.99935448162,11128.35241894155,0.0,0.0,0.0,2019-03-17T21:27:40.200348,15,EyesClosed
-18961.968298193016,-1738.205759311409,5650.677460512813,3643.3566979595066,21689.8198950076,12001.61272306594,10746.919899811734,11010.983408806731,0.0,0.0,0.0,2019-03-17T21:27:40.200846,15,EyesClosed
-18854.00937247388,-1640.1039528970664,5649.202245378762,3464.833314994969,21809.692300521412,11437.052361613794,10829.822519996467,10871.799096083534,0.0,0.0,0.0,2019-03-17T21:27:40.208447,15,EyesClosed
-18743.90467928704,-1532.5473585781288,5776.2048573738175,3598.7202642822585,21932.202211880947,11389.644311624088,10945.202224874762,10977.45579212377,0.0,0.0,0.0,2019-03-17T21:27:40.208802,15,EyesClosed
-18840.77713975634,-1632.593766760083,5782.686863265856,3786.6760834069355,21827.372530385557,11936.300925767533,10874.816581585,11121.132805482484,0.0,0.0,0.0,2019-03-17T21:27:40.216515,15,EyesClosed
-18953.474635299997,-1753.0026141408223,5656.600672793469,3674.850305897034,21691.58568281957,12048.283165488621,10746.249347478075,11028.261307270683,0.0,0.0,0.0,2019-03-17T21:27:40.216899,15,EyesClosed
-18881.367907687178,-1678.6383603380157,5620.59201247597,3456.898445713335,21773.638936715,11500.732481566964,10790.908132899778,10856.488151131649,0.0,0.0,0.0,2019-03-17T21:27:40.223565,15,EyesClosed
-18767.19519700947,-1553.6921088328493,5734.317688264571,3527.8205308700244,21913.404394794037,11313.626028731589,10917.642523961369,10916.390826271872,0.008,1.032,0.158,2019-03-17T21:27:40.224035,15,EyesClosed
-18849.047285204804,-1622.691943966382,5773.030909661164,3744.0960102195754,21841.47648113686,11829.616049482353,10881.812677599512,11082.397232341436,0.0,0.0,0.0,2019-03-17T21:27:40.231044,15,EyesClosed
-18973.03241169839,-1769.7664224823027,5664.401431608371,3707.729721990791,21694.022022965197,12096.115898622978,10753.759533615057,11043.23697605574,0.0,0.0,0.0,2019-03-17T21:27:40.231444,15,EyesClosed
-18927.166632076103,-1731.3437737636298,5596.563887186514,3482.088861714466,21734.97041880732,11608.57964856382,10763.393135475295,10860.220892455685,0.0,0.0,0.0,2019-03-17T21:27:40.239128,15,EyesClosed
-18785.747144907375,-1590.4160249729186,5699.6054291254795,3502.607763124438,21891.14205731655,11285.172258039984,10896.140145795363,10874.257787973618,0.0,0.0,0.0,2019-03-17T21:27:40.239526,15,EyesClosed
-18813.86563943215,-1605.056417591145,5773.701461994822,3729.232100156796,21867.963298316397,11735.448150092143,10898.01769232961,11053.630537227456,0.0,0.0,0.0,2019-03-17T21:27:40.246396,15,EyesClosed
-18952.580565521785,-1748.241692571842,5677.07487071453,3736.6081758270475,21707.85775278303,12118.400587844919,10758.36399297285,11056.871540173477,0.0,0.0,0.0,2019-03-17T21:27:40.247029,15,EyesClosed
-18940.80119619384,-1751.236826328853,5592.5405731845585,3509.5815073944937,21714.362110419526,11729.65904827822,10736.146358984275,10873.989567040155,0.0,0.0,0.0,2019-03-17T21:27:40.252978,15,EyesClosed
-18799.873447403126,-1612.7230659393151,5682.059309728063,3472.5893703209604,21880.256757766816,11310.832060674675,10871.843799572445,10842.04892421352,0.0,0.0,0.0,2019-03-17T21:27:40.254129,15,EyesClosed
-18784.04841232877,-1590.3266179950974,5779.512915553202,3688.3731112924947,21895.970034118895,11658.35698346579,10907.15955581183,11010.715187873267,0.0,0.0,0.0,2019-03-17T21:27:40.261016,15,EyesClosed
-18914.292027269847,-1717.7315613903477,5710.267211230661,3755.651862102969,21734.59043915158,12139.746503799737,10778.011176349066,11059.151418107918,0.0,0.0,0.0,2019-03-17T21:27:40.268944,15,EyesClosed
-18938.007228136925,-1745.91711114849,5612.277163538595,3550.08286834751,21702.046299224654,11872.911378492283,10729.50789088105,10896.9224568513,0.006,1.026,0.164,2019-03-17T21:27:40.269632,15,EyesClosed
-18804.321444549732,-1608.8785658930024,5671.330472389516,3458.1277916583767,21859.33552495665,11368.454857880457,10853.202444696719,10829.28607812954,0.0,0.0,0.0,2019-03-17T21:27:40.276144,15,EyesClosed
-18761.18257775099,-1539.2305301702656,5778.350624841527,3654.286700998152,21909.582246492177,11576.594302248277,10916.614343716425,10981.993196248199,0.0,0.0,0.0,2019-03-17T21:27:40.276789,15,EyesClosed
-18886.1064775117,-1678.4148428934627,5731.680182418845,3777.4448129468938,21760.898442375477,12114.869012220981,10804.788566206524,11072.00367116972,0.0,0.0,0.0,2019-03-17T21:27:40.283769,15,EyesClosed
-18937.94017290356,-1758.5234950212832,5612.075997838498,3600.977790472244,21685.90833972792,11982.077298412001,10722.221222188618,10927.432588032794,0.0,0.0,0.0,2019-03-17T21:27:40.284652,15,EyesClosed
-18823.141613381104,-1642.4285343204183,5634.651259738357,3452.7857247335587,21822.7010157944,11424.602439952188,10818.870165213368,10811.069406398465,0.0,0.0,0.0,2019-03-17T21:27:40.291596,15,EyesClosed
-18752.845377069163,-1557.7377745792598,5769.611092759502,3628.2022152188083,21921.115746631116,11505.471051391489,10920.347085040461,10948.331469098506,0.0,0.0,0.0,2019-03-17T21:27:40.292463,15,EyesClosed
-18864.31352666778,-1662.8356770081136,5758.211703087295,3794.0298073327313,21793.084954391117,12067.885645375925,10831.185976408242,11073.389479325948,0.0,0.0,0.0,2019-03-17T21:27:40.299871,15,EyesClosed
-18953.31817308881,-1758.5011432768279,5632.214919592729,3650.889235840945,21682.33206061507,12071.417220999863,10721.17069019922,10954.657012779357,0.0,0.0,0.0,2019-03-17T21:27:40.300742,15,EyesClosed
-18849.15904392708,-1671.5528573456834,5621.083750853986,3461.7934777490473,21793.59904451359,11505.403996158124,10794.864391668367,10807.940162174722,0.0,0.0,0.0,2019-03-17T21:27:40.306174,15,EyesClosed
-18726.55972558972,-1554.1167919775,5740.643231945423,3578.1343076389203,21917.181839606983,11430.682114444031,10907.360721511928,10908.232439545685,0.01,1.022,0.17,2019-03-17T21:27:40.307048,15,EyesClosed
-18790.373956009622,-1624.793007945181,5767.018290402686,3784.6420746615026,21830.457071120392,11993.56609506203,10854.029459241565,11072.830685714565,0.0,0.0,0.0,2019-03-17T21:27:40.314509,15,EyesClosed
-18905.55249518782,-1760.7810212112693,5642.653184253358,3690.429471782383,21691.272758397194,12145.803826547126,10728.189137958187,10985.502420127681,0.0,0.0,0.0,2019-03-17T21:27:40.315202,15,EyesClosed
-18839.748959511395,-1708.9920293083228,5601.280105266584,3471.672948798293,21765.59230871109,11606.25506714047,10766.052993065476,10812.298752343506,0.0,0.0,0.0,2019-03-17T21:27:40.321547,15,EyesClosed
-18714.93681847296,-1580.6930161348603,5716.928031078342,3532.9837838392004,21907.034147624272,11383.095250498684,10888.115869535908,10860.399706411328,0.0,0.0,0.0,2019-03-17T21:27:40.329258,15,EyesClosed
-18772.693726145473,-1613.1701008284213,5768.42645030337,3752.746135323779,21846.706789339398,11888.244675188622,10859.125656977374,11027.23312702574,0.0,0.0,0.0,2019-03-17T21:27:40.330022,15,EyesClosed
-18907.586503933253,-1747.5040850048167,5662.903864729866,3719.3526291075505,21693.329118887083,12175.911626328425,10726.512757124037,10991.26917019715,0.0,0.0,0.0,2019-03-17T21:27:40.335852,15,EyesClosed
-18867.532177869343,-1726.6052039391047,5596.608590675425,3487.9450187617567,21729.44953792686,11705.496812522033,10732.503024638061,10809.9518191757,0.0,0.0,0.0,2019-03-17T21:27:40.336589,15,EyesClosed
-18715.048577195237,-1590.6395424174718,5704.902792561387,3502.2054317242423,21893.04195559525,11370.690032325987,10869.787439082556,10823.742845504625,0.0,0.0,0.0,2019-03-17T21:27:40.343932,15,EyesClosed
-18733.332304159678,-1590.2372110172762,5789.012406946708,3738.463370616838,21877.507493198813,11804.895020114782,10878.549322909037,11004.27788547014,0.0,0.0,0.0,2019-03-17T21:27:40.344597,15,EyesClosed
-18879.78093383085,-1722.0230963257668,5700.521850648147,3762.111516250553,21718.944218032866,12202.063167341134,10743.567138143437,11015.163185019874,0.008,1.022,0.168,2019-03-17T21:27:40.351916,15,EyesClosed
-18879.98209953095,-1730.4497039854175,5611.2042798047405,3538.571719953027,21718.92186628841,11832.678238472728,10719.047274475966,10840.126674190364,0.0,0.0,0.0,2019-03-17T21:27:40.352695,15,EyesClosed
-18737.981467006382,-1591.7794813846924,5686.239085941206,3485.8216030385024,21875.62994666457,11384.771631332831,10843.457084114205,10800.608789993381,0.0,0.0,0.0,2019-03-17T21:27:40.358597,15,EyesClosed
-18719.18364991947,-1554.407364655419,5791.180526158872,3709.4508063138496,21900.507438243323,11703.21693458759,10883.265540989107,10970.437344364804,0.0,0.0,0.0,2019-03-17T21:27:40.359247,15,EyesClosed
-18865.811093546283,-1702.24180248282,5728.260365517183,3791.101728809086,21740.267782243227,12187.892161356469,10753.245443492586,11025.534394447135,0.0,0.0,0.0,2019-03-17T21:27:40.366665,15,EyesClosed
-18899.338710229244,-1749.851018172624,5622.983649132687,3590.6736362783477,21693.954967731832,11940.480701980676,10692.761622996524,10861.24907270063,0.0,0.0,0.0,2019-03-17T21:27:40.367321,15,EyesClosed
-18775.063011057737,-1631.923214426424,5670.570513078036,3482.379434392385,21838.61545784658,11416.667570670554,10802.66515048327,10775.530132714526,0.0,0.0,0.0,2019-03-17T21:27:40.374534,15,EyesClosed
-18713.528658572275,-1563.0351380151676,5793.549811071135,3679.2983030436403,21904.642510967555,11607.48441308551,10875.755354852123,10926.002076387653,0.0,0.0,0.0,2019-03-17T21:27:40.375485,15,EyesClosed
-18830.897668707094,-1675.8220405366471,5760.625691488468,3811.7770924302454,21761.97132610933,12152.799922561637,10764.466019209149,11019.655885655391,0.0,0.0,0.0,2019-03-17T21:27:40.381960,15,EyesClosed
-18897.729384628463,-1748.1969890829314,5644.821303465522,3641.8367793365455,21684.589586805057,12047.746723621694,10677.763602467014,10876.112982763409,0.0,0.0,0.0,2019-03-17T21:27:40.388211,15,EyesClosed
-18777.76757213683,-1634.0689818941335,5672.112783445452,3495.097576987455,21826.925495496453,11490.94241749554,10779.821667649945,10760.018022062544,0.004,1.028,0.162,2019-03-17T21:27:40.388973,15,EyesClosed
-18694.440268807444,-1537.7553150362153,5798.131918684473,3655.7172126432915,21926.234296111383,11533.813063360818,10873.34136645095,10881.522104921592,0.0,0.0,0.0,2019-03-17T21:27:40.396100,15,EyesClosed
-18809.641159730098,-1652.9338542144126,5789.168869157895,3830.3737438170606,21800.75160273929,12097.501706779207,10783.08502234042,11008.636475638923,0.0,0.0,0.0,2019-03-17T21:27:40.396865,15,EyesClosed
-18898.757564873405,-1741.4467622574286,5667.128344431919,3700.264239342718,21686.556540317124,12131.342247884542,10671.572169252893,10899.224686530195,0.0,0.0,0.0,2019-03-17T21:27:40.404277,15,EyesClosed
-18796.073650845727,-1667.149563687988,5658.545274561081,3507.7486643491584,21794.940149180908,11569.173523089114,10741.376667186818,10747.858673078856,0.0,0.0,0.0,2019-03-17T21:27:40.404927,15,EyesClosed
-18686.30423382571,-1558.2295129572765,5785.927866211876,3621.5190436266716,21929.318836846214,11469.820018985274,10864.758296580112,10836.282174144051,0.0,0.0,0.0,2019-03-17T21:27:40.411353,15,EyesClosed
-18778.99691808187,-1625.9776504013123,5808.190203689362,3820.784845445734,21833.921591510963,12009.391130136388,10805.503822029093,10987.089393984008,0.0,0.0,0.0,2019-03-17T21:27:40.412106,15,EyesClosed
-18909.441698723043,-1768.850000959635,5684.026263240131,3733.5459868366706,21686.176560661384,12178.79500136316,10671.147486108242,10909.551192468547,0.0,0.0,0.0,2019-03-17T21:27:40.418884,15,EyesClosed
-18845.538061325322,-1712.6800671434485,5645.089524398986,3517.0469900425664,21762.999506354274,11654.065448530371,10712.297047650463,10739.968507286134,0.0,0.0,0.0,2019-03-17T21:27:40.419524,15,EyesClosed
-18702.643359022542,-1573.2722369756982,5764.134915367951,3573.1722203698423,21919.305255330237,11416.667570670554,10846.228700426664,10782.950911873688,0.0,0.0,0.0,2019-03-17T21:27:40.427055,15,EyesClosed
-18744.3740659206,-1604.3635135130303,5821.489491640269,3796.041464333709,21868.298574483226,11909.031797532058,10824.256935627096,10951.147788899874,0.008,1.022,0.166,2019-03-17T21:27:40.427716,15,EyesClosed
-18883.73719259944,-1744.2630820587972,5712.3459234650045,3765.4419261743938,21706.62840683799,12203.247809797265,10682.25630310253,10916.010846616131,0.0,0.0,0.0,2019-03-17T21:27:40.434704,15,EyesClosed
-18853.227061417947,-1715.0940555446216,5636.148826616863,3532.7826181391024,21732.511726917237,11743.673592051697,10677.49538153355,10728.144434469275,0.0,0.0,0.0,2019-03-17T21:27:40.435203,15,EyesClosed
-18705.862010224108,-1566.991396783757,5744.934766880842,3545.6795746898147,21903.010833622317,11392.438279681002,10819.563069291482,10737.912146796245,0.0,0.0,0.0,2019-03-17T21:27:40.440827,15,EyesClosed
-18719.40716736402,-1580.8494783460474,5826.853910309543,3773.0638710336534,21887.31990901469,11796.75898513305,10826.872089728367,10907.628942445392,0.0,0.0,0.0,2019-03-17T21:27:40.448260,15,EyesClosed
-18849.181395671534,-1721.8442823701243,5737.08930457703,3804.5798307156365,21720.598247122558,12209.908629644946,10685.944340937656,10916.9272681388,0.0,0.0,0.0,2019-03-17T21:27:40.448762,15,EyesClosed
-18865.40876214609,-1729.6673929294818,5642.653184253358,3583.0740431635436,21711.121107473507,11862.16018940928,10652.416724254696,10740.616707875337,0.0,0.0,0.0,2019-03-17T21:27:40.456101,15,EyesClosed
-18727.453795367932,-1615.2711648072202,5722.918298592365,3530.7262576492144,21878.64743216603,11406.765747876852,10784.85081015239,10697.477841076594,0.0,0.0,0.0,2019-03-17T21:27:40.456690,15,EyesClosed
-18702.643359022542,-1581.8106033576255,5826.272764953705,3748.6110625995475,21908.889342414062,11701.205277586614,10828.481415329148,10859.662098844303,0.0,0.0,0.0,2019-03-17T21:27:40.464356,15,EyesClosed
-18835.837404231715,-1686.9085057864793,5763.866694434488,3837.973336931865,21752.784759138198,12201.124394074011,10702.372873112306,10916.614343716425,0.0,0.0,0.0,2019-03-17T21:27:40.465316,15,EyesClosed
-18875.712916339984,-1744.5760064811716,5655.393678592883,3638.8416455795345,21704.125011458997,11976.243493109167,10639.564471192894,10750.764399858046,0.008,1.022,0.17,2019-03-17T21:27:40.470869,15,EyesClosed
-18742.22829845289,-1624.3683248005302,5706.467414673259,3525.048914557566,21858.173234244972,11447.512978018878,10758.788676117501,10662.810285426413,0.0,0.0,0.0,2019-03-17T21:27:40.471417,15,EyesClosed
-18677.296480810222,-1561.5599228811172,5820.394256161959,3707.461501057327,21924.91554318852,11600.86829672674,10829.129615918353,10800.072348126454,0.0,0.0,0.0,2019-03-17T21:27:40.478844,15,EyesClosed
-18793.19027581099,-1675.5091161142727,5790.644084291946,3851.1608661604964,21786.379431054527,12153.78339931767,10725.797501301467,10902.979779598687,0.0,0.0,0.0,2019-03-17T21:27:40.479342,15,EyesClosed
-18865.58757610173,-1745.6488902150263,5672.984501479209,3689.7142159598134,21701.711023057822,12077.608654213984,10637.977497336567,10771.50681871257,0.0,0.0,0.0,2019-03-17T21:27:40.486893,15,EyesClosed
-18757.382781193588,-1648.1058774120663,5676.3596148919605,3516.309382475541,21823.41627161697,11507.616818859198,10722.288277421985,10636.792854880436,0.0,0.0,0.0,2019-03-17T21:27:40.487375,15,EyesClosed
-18663.706620181398,-1559.280044946676,5797.796642517644,3660.1652097898973,21927.91067694553,11519.37383644269,10821.597078036915,10748.551577156972,0.0,0.0,0.0,2019-03-17T21:27:40.494192,15,EyesClosed
-18763.48480742989,-1645.244854121787,5804.2115931763165,3844.1871218904403,21818.83416400363,12086.147020595912,10748.50687366806,10892.362700982416,0.0,0.0,0.0,2019-03-17T21:27:40.494747,15,EyesClosed
-18869.856759292696,-1752.466172273895,5678.751251548678,3715.7316465057906,21695.96662473281,12143.054561979123,10633.618907167782,10787.75653693158,0.0,0.0,0.0,2019-03-17T21:27:40.500709,15,EyesClosed
-18785.322461762724,-1672.7374998018147,5659.21582689474,3510.6320393838932,21796.63888175951,11583.590398262788,10698.841297488369,10631.808415866903,0.0,0.0,0.0,2019-03-17T21:27:40.501347,15,EyesClosed
-18673.899015653016,-1553.155666965922,5780.027005675674,3608.532680098138,21931.24108686937,11454.64318450012,10822.558203048493,10712.185288928187,0.006,1.016,0.17400000000000002,2019-03-17T21:27:40.508942,15,EyesClosed
-18742.876499042093,-1610.7561124272481,5812.973477002797,3816.3368482991277,21850.52893764126,11995.08601368499,10775.731298414625,10874.280139718074,0.0,0.0,0.0,2019-03-17T21:27:40.516816,15,EyesClosed
-18863.821788289762,-1746.721773948881,5695.2021354677845,3747.560530610148,21706.471944626803,12197.190487049877,10644.995945095534,10809.32597033095,0.0,0.0,0.0,2019-03-17T21:27:40.517461,15,EyesClosed
-18807.562447495755,-1707.7403316188256,5644.396620320871,3525.7865221245916,21769.436808757404,11684.664986689686,10673.047384386944,10629.729703632558,0.0,0.0,0.0,2019-03-17T21:27:40.523323,15,EyesClosed
-18681.386850045546,-1574.2110102428212,5751.617938472979,3564.700909221281,21915.81838319521,11413.873602613641,10796.585475991425,10656.283576045464,0.0,0.0,0.0,2019-03-17T21:27:40.523985,15,EyesClosed
-18728.392568635056,-1599.4684814773182,5817.734398571778,3793.3816067435273,21873.394772219035,11893.452631646709,10778.659376938269,10825.799205994512,0.0,0.0,0.0,2019-03-17T21:27:40.531275,15,EyesClosed
-18857.853872520194,-1724.8617678715907,5718.403246212393,3781.624589160036,21711.054052240142,12223.409083295952,10638.335125247851,10801.815784193968,0.0,0.0,0.0,2019-03-17T21:27:40.532077,15,EyesClosed
-18833.937505953018,-1721.2184335253758,5645.4248005658155,3557.4589440177615,21730.6788838719,11797.00485432206,10631.562546677893,10614.776386591959,0.0,0.0,0.0,2019-03-17T21:27:40.539571,15,EyesClosed
-18685.32075706968,-1591.3547982400416,5744.286566291638,3550.3287375365185,21892.99725210634,11424.02129459635,10764.17544653123,10597.744357317015,0.0,0.0,0.0,2019-03-17T21:27:40.540462,15,EyesClosed
-18691.89216993954,-1584.828088859092,5834.364096446526,3778.98708331431,21889.19745554894,11814.305104530467,10782.101545584386,10763.191969775196,0.0,0.0,0.0,2019-03-17T21:27:40.546571,15,EyesClosed
-18830.405930329078,-1712.2777357432528,5763.173790356373,3830.3066885836947,21733.40579669545,12258.411915112963,10653.579014966372,10792.115127100364,0.008,1.012,0.17,2019-03-17T21:27:40.547268,15,EyesClosed
-18852.48945385092,-1733.2660237867863,5665.563722320047,3610.3208196545625,21712.618674352012,11935.69742866724,10610.753072590003,10610.730720845548,0.0,0.0,0.0,2019-03-17T21:27:40.554017,15,EyesClosed
-18718.267228396802,-1605.3022867801533,5731.9484033523095,3534.3025367620635,21871.628984407067,11457.168931623572,10734.984068272599,10546.782379958913,0.0,0.0,0.0,2019-03-17T21:27:40.554811,15,EyesClosed
-18669.11574233958,-1550.7416785647488,5848.088067542085,3754.958958024855,21922.747423976354,11738.555042571432,10800.944066160211,10716.163899441231,0.0,0.0,0.0,2019-03-17T21:27:40.562093,15,EyesClosed
-18812.14455510909,-1686.2379534528202,5787.112508668007,3848.791581248234,21766.329916278115,12249.538272564207,10679.261169345518,10784.8955136413,0.0,0.0,0.0,2019-03-17T21:27:40.562770,15,EyesClosed
-18856.98215448644,-1747.6381954715487,5666.12251593143,3647.178846261364,21702.269816669206,12049.28899398911,10605.43335740964,10620.409026194695,0.0,0.0,0.0,2019-03-17T21:27:40.569151,15,EyesClosed
-18730.583039591675,-1642.4508860648737,5699.538373892114,3515.549423164061,21847.287934695236,11508.108557237216,10717.9296872532,10519.379141256708,0.0,0.0,0.0,2019-03-17T21:27:40.575979,15,EyesClosed
-18683.979652402362,-1572.3334637085754,5816.326238671093,3692.73170146128,21926.547220533757,11640.766160579464,10805.928505173744,10663.145561593243,0.0,0.0,0.0,2019-03-17T21:27:40.576670,15,EyesClosed
-18811.71987196444,-1679.2865609272196,5784.698520266834,3837.95098518741,21785.77593395423,12197.70457717235,10704.608047557836,10775.373670503339,0.0,0.0,0.0,2019-03-17T21:27:40.583589,15,EyesClosed
-18891.537951414342,-1771.0628236607104,5655.438382081793,3673.017462851699,21685.953043216832,12146.362620158508,10601.253581196497,10640.972631093578,0.0,0.0,0.0,2019-03-17T21:27:40.584232,15,EyesClosed
-18781.14268554958,-1671.8657817680578,5662.769754263134,3497.8244898110024,21811.771012755755,11585.400889563667,10687.665425260715,10507.93504809559,0.006,1.02,0.164,2019-03-17T21:27:40.591480,15,EyesClosed
-18688.494704782333,-1569.3606816960196,5790.688787780856,3639.735715357747,21927.597752523157,11578.740069715986,10799.357092303884,10622.241869240032,0.0,0.0,0.0,2019-03-17T21:27:40.592128,15,EyesClosed
-18786.775325152317,-1656.5101333272617,5791.2922848811495,3825.56811875917,21814.676739534945,12134.896175252936,10719.561364598438,10760.554463929471,0.0,0.0,0.0,2019-03-17T21:27:40.599670,15,EyesClosed
-18888.54281765733,-1764.5584660242162,5665.45196359777,3709.406102824939,21682.77909550418,12223.99022865179,10592.29053166992,10658.764619680003,0.0,0.0,0.0,2019-03-17T21:27:40.600571,15,EyesClosed
-18800.76751718134,-1683.2204679513536,5643.994288920676,3509.112120760932,21776.92464314993,11681.558094210399,10650.405067253718,10499.128460780199,0.0,0.0,0.0,2019-03-17T21:27:40.606431,15,EyesClosed
-18687.265358837292,-1568.2430944732541,5762.637348489446,3600.374293371951,21912.57738024919,11525.967601057006,10770.724507656636,10568.843551736301,0.0,0.0,0.0,2019-03-17T21:27:40.607427,15,EyesClosed
-18757.382781193588,-1628.9951359027787,5797.953104728831,3813.3193627976616,21834.03335023324,12050.227767256232,10722.69060882218,10724.501100123061,0.0,0.0,0.0,2019-03-17T21:27:40.614447,15,EyesClosed
-18876.808151818295,-1750.9015501620233,5691.245876699195,3761.9997575282764,21692.39034561996,12283.512924136272,10597.923171272656,10670.454582030128,0.0,0.0,0.0,2019-03-17T21:27:40.615288,15,EyesClosed
-18821.040549402303,-1710.8248723536578,5638.540463273581,3537.2306152857086,21746.749788135265,11782.230351237102,10621.303095972908,10492.26647523242,0.0,0.0,0.0,2019-03-17T21:27:40.622175,15,EyesClosed
-18686.036012892248,-1573.4957544202514,5748.175769826862,3567.092545877999,21901.49091499936,11485.041556959339,10752.641946392292,10514.282943520897,0.0,0.0,0.0,2019-03-17T21:27:40.622878,15,EyesClosed
-18723.5198883438,-1597.9038593654466,5815.700389826345,3794.1639177994634,21867.024525049274,11942.872338637393,10746.204643989164,10689.49826830605,0.004,1.028,0.164,2019-03-17T21:27:40.628533,15,EyesClosed
-18861.005468488394,-1742.0726111021772,5714.983429310731,3789.2241822748406,21703.275645169695,12289.547895139205,10608.33908418883,10679.864666445812,0.0,0.0,0.0,2019-03-17T21:27:40.635908,15,EyesClosed
-18850.880128250137,-1732.8636923865906,5633.01958239312,3558.80004868508,21721.894648300964,11876.39825062731,10601.968837019067,10502.592981170772,0.0,0.0,0.0,2019-03-17T21:27:40.636920,15,EyesClosed
-18712.45577483842,-1601.658952433938,5715.65398164439,3525.5630046800384,21884.90592061352,11469.820018985274,10740.817873575435,10483.21401872802,0.0,0.0,0.0,2019-03-17T21:27:40.643820,15,EyesClosed
-18699.670577009987,-1598.3061907656422,5808.05609322263,3753.6402051019913,21895.366537018603,11838.355581564378,10775.016042592055,10662.407954026217,0.0,0.0,0.0,2019-03-17T21:27:40.644551,15,EyesClosed
-18839.704256022484,-1723.8335876266467,5734.362391753482,3816.8509384216,21736.043302541173,12298.130965010043,10648.751038164024,10711.760605783535,0.0,0.0,0.0,2019-03-17T21:27:40.652052,15,EyesClosed
-18872.874244794162,-1758.948178165934,5621.150806087352,3590.7406915117135,21695.184313676873,11989.632188037896,10590.9494270026,10534.399513530674,0.0,0.0,0.0,2019-03-17T21:27:40.653061,15,EyesClosed
-18744.865804298617,-1645.4907233107954,5685.702644074278,3508.9109550608346,21852.250021964315,11497.938513510051,10715.06866396292,10473.78158256788,0.0,0.0,0.0,2019-03-17T21:27:40.658563,15,EyesClosed
-18710.93585621546,-1601.2566210337427,5798.310732640116,3720.917251219422,21902.27322605529,11740.901975739238,10780.648682194791,10643.096046816832,0.0,0.0,0.0,2019-03-17T21:27:40.659205,15,EyesClosed
-18841.805320001284,-1721.1066748030992,5740.822045901066,3825.635173992536,21744.44755845637,12256.310851134163,10654.517788233494,10723.271754178018,0.0,0.0,0.0,2019-03-17T21:27:40.666584,15,EyesClosed
-18894.93541657155,-1782.529268566283,5619.764997931123,3633.209005976797,21671.267947109696,12083.777735683649,10567.793019746903,10567.70361276908,0.006,1.026,0.168,2019-03-17T21:27:40.667366,15,EyesClosed
-18756.80163583775,-1650.4081070909629,5665.988405464698,3508.0392370270774,21824.533858839735,11545.368915244213,10681.518695535506,10473.98274826798,0.0,0.0,0.0,2019-03-17T21:27:40.674683,15,EyesClosed
-18685.45486753641,-1563.504524648729,5793.594514560046,3689.0883671150646,21912.353862804637,11647.248166471501,10769.383402989317,10611.960066790589,0.0,0.0,0.0,2019-03-17T21:27:40.675735,15,EyesClosed
-18804.16498233855,-1671.1952294343985,5776.04839516263,3848.2551393813064,21780.45621877387,12199.470364984318,10671.974500653088,10731.40778915975,0.0,0.0,0.0,2019-03-17T21:27:40.681972,15,EyesClosed
-18892.633186892654,-1761.853904945124,5652.510303558148,3696.375035807495,21676.408848334417,12174.235245494277,10567.27892962443,10608.406139422195,0.0,0.0,0.0,2019-03-17T21:27:40.682817,15,EyesClosed
-18782.595548939174,-1664.4450026088957,5649.090486656486,3514.0965597744657,21793.710803235866,11608.803166008374,10642.604308438815,10463.276262673888,0.0,0.0,0.0,2019-03-17T21:27:40.688316,15,EyesClosed
-18683.756134957806,-1566.7455275947486,5771.734508482756,3640.965061302789,21909.157563347526,11564.144380586671,10746.003478289065,10558.517045797951,0.0,0.0,0.0,2019-03-17T21:27:40.695968,15,EyesClosed
-18773.05135405676,-1646.8094762336584,5787.403081345926,3838.33096484315,21808.082974920628,12120.434596590352,10679.775259467991,10711.939419739178,0.0,0.0,0.0,2019-03-17T21:27:40.696624,15,EyesClosed
-18886.866436823184,-1763.5526375237273,5661.227483895717,3731.1319984354973,21673.123141899487,12228.840557198591,10552.549130028383,10620.364322705786,0.0,0.0,0.0,2019-03-17T21:27:40.704181,15,EyesClosed
-18805.796659683783,-1695.8939070575127,5630.627945736403,3516.6223068979157,21761.21136679785,11686.296664034924,10605.634523109738,10455.900187003635,0.0,0.0,0.0,2019-03-17T21:27:40.704830,15,EyesClosed
-18686.036012892248,-1571.5958561415503,5754.434258274348,3597.669732292859,21908.509362758323,11506.007493258418,10739.767341586035,10521.547260468873,0.006,1.028,0.16,2019-03-17T21:27:40.711423,15,EyesClosed
-18755.81815908172,-1629.531577769706,5794.712101782811,3811.598278474603,21836.067358978675,12019.38235990791,10702.752852768046,10689.185343883675,0.0,0.0,0.0,2019-03-17T21:27:40.712059,15,EyesClosed
-18891.64971013662,-1761.4739252893837,5682.953379506276,3763.2961587066843,21685.72952577228,12272.09118271961,10569.983490703522,10648.214596297097,0.0,0.0,0.0,2019-03-17T21:27:40.718835,15,EyesClosed
-18848.823767760252,-1735.1659220654872,5623.564794488525,3539.9351763648006,21737.607924653046,11792.623912408819,10590.502392113494,10477.223751213998,0.0,0.0,0.0,2019-03-17T21:27:40.719762,15,EyesClosed
-18709.684158525964,-1597.568583198617,5731.456664974292,3558.6212347294377,21898.741650431355,11478.246626644925,10725.97631525711,10499.754309624948,0.0,0.0,0.0,2019-03-17T21:27:40.726755,15,EyesClosed
-18737.623839095097,-1614.019467117723,5809.53130835668,3787.3689874850497,21876.747533887334,11924.02981806157,10731.921879282223,10681.518695535506,0.0,0.0,0.0,2019-03-17T21:27:40.727560,15,EyesClosed
-18880.339727442235,-1756.1542101090206,5713.08353103203,3795.527374211237,21711.501087129247,12295.269941719764,10595.24096193802,10683.910332192223,0.0,0.0,0.0,2019-03-17T21:27:40.735033,15,EyesClosed
-18869.275613936858,-1751.750916451325,5623.9447741442655,3568.6571679898702,21716.194953464863,11900.560486383496,10577.337214629319,10507.488013206485,0.0,0.0,0.0,2019-03-17T21:27:40.735829,15,EyesClosed
-18736.774472805795,-1619.763865442737,5706.378007695438,3527.015868069633,21876.8145891207,11475.989100454939,10707.983160970589,10480.21888497101,0.0,0.0,0.0,2019-03-17T21:27:40.741565,15,EyesClosed
-18724.81628952221,-1613.5500804841615,5804.0327792206745,3752.1649899679414,21890.717374171898,11821.882345900816,10744.572966643926,10659.837503413857,0.0,0.0,0.0,2019-03-17T21:27:40.742356,15,EyesClosed
-18859.373791143156,-1751.0580123732107,5733.200101041806,3825.657525736991,21731.818822839123,12290.844296317613,10620.677247128158,10712.364102883828,0.006,1.02,0.16,2019-03-17T21:27:40.748531,15,EyesClosed
-18885.055945522305,-1780.3611493541182,5633.3325068154945,3622.2790029381517,21701.018118979708,12022.578659365017,10575.303205883885,10551.163321872154,0.0,0.0,0.0,2019-03-17T21:27:40.749294,15,EyesClosed
-18747.883289800084,-1637.8911301959909,5689.904772031877,3526.1888535247867,21854.261678965293,11515.775205585385,10691.889904962767,10476.664957602616,0.0,0.0,0.0,2019-03-17T21:27:40.756788,15,EyesClosed
-18696.496629297333,-1585.118661537011,5798.020159962197,3721.766617508724,21902.072060355196,11720.22661211808,10747.277527723018,10624.030008796455,0.0,0.0,0.0,2019-03-17T21:27:40.763579,15,EyesClosed
-18828.72954949493,-1705.5722124066608,5764.201970601317,3849.9538719599095,21762.6865819319,12253.852159244081,10640.436189226652,10717.16972794172,0.0,0.0,0.0,2019-03-17T21:27:40.764257,15,EyesClosed
-18897.483515439453,-1778.6400650310595,5644.441323809782,3662.15451504642,21683.159075159918,12109.21402087379,10553.51025503996,10565.937824957113,0.0,0.0,0.0,2019-03-17T21:27:40.771118,15,EyesClosed
-18765.004726052848,-1664.310892142164,5670.861085755955,3512.7778068516027,21822.56690532767,11554.42137174861,10656.171817323187,10450.915747990102,0.0,0.0,0.0,2019-03-17T21:27:40.771765,15,EyesClosed
-18683.733783213353,-1588.0690918051114,5792.365168615004,3672.7715936626905,21911.86212442662,11621.431901625623,10747.635155634303,10575.258502394976,0.0,0.0,0.0,2019-03-17T21:27:40.778968,15,EyesClosed
-18789.47988623141,-1687.8696307980576,5778.820011475088,3837.682764253946,21784.36777405355,12177.520951929208,10656.842369656846,10700.942361467167,0.0,0.0,0.0,2019-03-17T21:27:40.779610,15,EyesClosed
-18868.62741334765,-1768.7382422373585,5658.50057107217,3697.313809074618,21679.605147791524,12185.634635166483,10553.443199806596,10594.078671226343,0.0,0.0,0.0,2019-03-17T21:27:40.787277,15,EyesClosed
-18765.4294091975,-1676.537296359217,5655.617196037436,3513.962449307734,21796.482419548323,11632.652477342186,10633.127168789766,10455.095524203245,0.008,1.016,0.162,2019-03-17T21:27:40.787920,15,EyesClosed
-18667.21584406088,-1584.246943503254,5774.863752706498,3629.655078608403,21918.075909385196,11558.601147961754,10745.265870722042,10549.218720104542,0.0,0.0,0.0,2019-03-17T21:27:40.793748,15,EyesClosed
-18756.511063159833,-1666.3672526320522,5787.604247046023,3821.008362890287,21818.78946051472,12098.127555623956,10683.373890325296,10700.07064343341,0.0,0.0,0.0,2019-03-17T21:27:40.794688,15,EyesClosed
-18872.11428548268,-1783.624504044593,5665.966053720243,3721.364286108528,21681.125066414486,12241.961031193858,10558.584101031316,10623.650029140716,0.0,0.0,0.0,2019-03-17T21:27:40.801843,15,EyesClosed
-18802.57800848222,-1719.1844247799427,5627.901032912855,3503.188908480276,21759.557337708156,11710.637713746753,10602.661741097181,10460.772867294892,0.0,0.0,0.0,2019-03-17T21:27:40.802596,15,EyesClosed
-18668.08756209464,-1584.0681295476115,5750.634461716946,3576.189705871309,21913.024415138294,11503.861725790708,10739.990859030588,10529.75035068397,0.0,0.0,0.0,2019-03-17T21:27:40.809867,15,EyesClosed
-18718.22252490789,-1630.6715167369268,5804.591572832057,3800.109481824575,21859.112007512096,12010.396958636877,10716.633286074792,10710.26303890503,0.0,0.0,0.0,2019-03-17T21:27:40.810504,15,EyesClosed
-18857.250375419902,-1761.3398148226518,5697.571420380047,3761.2174464723407,21707.25425568274,12292.990063785322,10587.641368823215,10687.106631649332,0.0,0.0,0.0,2019-03-17T21:27:40.817147,15,EyesClosed
-18823.05220640328,-1738.205759311409,5633.936003915787,3533.564929195038,21748.470872458325,11830.979505894125,10602.86290679728,10521.167280813132,0.0,0.0,0.0,2019-03-17T21:27:40.823365,15,EyesClosed
-18688.718222226886,-1614.667667706927,5729.936746351332,3535.9118623628456,21905.24600806785,11488.439022116545,10735.274640950518,10532.723132696527,0.0,0.0,0.0,2019-03-17T21:27:40.824029,15,EyesClosed
-18712.433423093968,-1631.6102900040496,5804.010427476219,3761.5080191502598,21886.135266558562,11906.953085297715,10744.952946299667,10713.995780229066,0.004,1.022,0.162,2019-03-17T21:27:40.831260,15,EyesClosed
-18847.90734623758,-1770.9510649384338,5718.313839234572,3789.1571270414743,21728.19784023736,12305.48468893584,10614.351703447308,10730.133739725798,0.0,0.0,0.0,2019-03-17T21:27:40.832047,15,EyesClosed
-18853.338820140223,-1769.5205532932941,5629.01862013562,3567.1372493669096,21725.627389625002,11936.54679495654,10587.61901707876,10552.124446883732,0.0,0.0,0.0,2019-03-17T21:27:40.839441,15,EyesClosed
-18729.398397135545,-1619.1603683424437,5711.854185086988,3524.7806936241027,21892.080830583673,11495.65863557561,10722.332980910896,10519.423844745617,0.0,0.0,0.0,2019-03-17T21:27:40.840134,15,EyesClosed
-18721.66469355401,-1589.3654929835193,5810.961820001819,3745.9959084982765,21911.81742093771,11812.315799273945,10759.88391159581,10690.325282850896,0.0,0.0,0.0,2019-03-17T21:27:40.846568,15,EyesClosed
-18861.385448144134,-1730.4497039854175,5745.2700430476725,3830.3290403281503,21753.12003530503,12300.164973755476,10632.098988544822,10748.08219052341,0.0,0.0,0.0,2019-03-17T21:27:40.847294,15,EyesClosed
-18907.92178010008,-1777.0530911747328,5624.794140433567,3613.405360389395,21696.860694511022,12043.410485197364,10557.645327764194,10572.844513993801,0.0,0.0,0.0,2019-03-17T21:27:40.854175,15,EyesClosed
-18762.590737651677,-1636.9747086733234,5678.639492826402,3511.280239973097,21853.881699309553,11528.873327836196,10677.517733278006,10495.932161323091,0.0,0.0,0.0,2019-03-17T21:27:40.854996,15,EyesClosed
-18700.050556665727,-1562.0293095146787,5800.836479763566,3714.502300560749,21925.4743367999,11721.120681896291,10755.74883887158,10659.792799924946,0.0,0.0,0.0,2019-03-17T21:27:40.862115,15,EyesClosed
-18834.451596075487,-1681.7005493283928,5765.297206079627,3847.875159725566,21782.043192630197,12262.032897714722,10646.180587551664,10764.13074304232,0.0,0.0,0.0,2019-03-17T21:27:40.862756,15,EyesClosed
-18914.56024820331,-1766.950102680934,5638.316945829028,3659.762878389702,21687.987051962264,12136.796073531637,10545.664792736148,10615.268124969974,0.004,1.022,0.166,2019-03-17T21:27:40.871593,15,EyesClosed
-18803.002691626873,-1670.6140840785604,5653.136152402896,3493.152975219843,21817.04602444721,11566.938348643584,10637.172834536175,10492.110013021233,0.0,0.0,0.0,2019-03-17T21:27:40.872235,15,EyesClosed
-18707.09135616915,-1577.3402544665641,5781.412813831904,3655.560750432104,21923.73090073239,11611.284209642912,10743.768303843535,10626.801625108914,0.0,0.0,0.0,2019-03-17T21:27:40.877752,15,EyesClosed
-18812.34572080919,-1676.2914271702084,5773.187371872351,3826.462188537382,21804.059660918672,12168.535550658173,10660.910387147713,10768.243464022096,0.0,0.0,0.0,2019-03-17T21:27:40.883970,15,EyesClosed
-18916.84012613775,-1782.171640654998,5645.6036145214575,3688.820146181601,21687.316499628603,12198.039853339178,10551.319784083342,10669.627567485282,0.0,0.0,0.0,2019-03-17T21:27:40.884803,15,EyesClosed
-18815.899648177583,-1696.6315146245379,5638.518111529125,3496.393978165863,21800.41632657246,11646.152930993192,10631.361380977796,10540.881519422714,0.0,0.0,0.0,2019-03-17T21:27:40.891605,15,EyesClosed
-18706.532562557764,-1591.9806470847902,5758.055240876108,3599.703741038292,21931.174031636005,11546.777075144897,10755.882949338311,10644.68302067316,0.0,0.0,0.0,2019-03-17T21:27:40.892396,15,EyesClosed
-18794.2855112893,-1662.8356770081136,5785.927866211876,3802.5458219702036,21850.32777194116,12095.62416024496,10709.368969126817,10819.89834545831,0.0,0.0,0.0,2019-03-17T21:27:40.898714,15,EyesClosed
-18911.721576657485,-1780.3387976096628,5665.3849083644045,3719.464387829827,21711.366976662517,12272.024127486246,10584.690938555115,10763.348431986384,0.0,0.0,0.0,2019-03-17T21:27:40.899483,15,EyesClosed
-18843.906383980084,-1716.077532300655,5616.814567663022,3494.8740595429017,21779.11511410655,11749.08271420988,10620.900764572712,10602.840555052824,0.0,0.0,0.0,2019-03-17T21:27:40.906288,15,EyesClosed
-18708.99125444785,-1595.7580918977371,5732.283679519139,3550.775772425625,21930.212906624427,11511.438967161057,10756.017059805043,10660.351593536328,0.008,1.024,0.168,2019-03-17T21:27:40.907166,15,EyesClosed
-18771.24086275588,-1645.0436884216892,5787.470136579292,3777.5342199247148,21876.27814725377,11999.154031175856,10736.101655495366,10842.563014335992,0.0,0.0,0.0,2019-03-17T21:27:40.914456,15,EyesClosed
-18906.98300683296,-1779.332969109174,5681.679330072324,3749.5498358666705,21716.887857542977,12300.67906387795,10596.202086949597,10824.502804816104,0.0,0.0,0.0,2019-03-17T21:27:40.915201,15,EyesClosed
-18874.21534946148,-1763.9102654350122,5614.847614150955,3525.1606732798427,21748.7837968807,11855.387610839321,10601.298284685408,10660.508055747516,0.0,0.0,0.0,2019-03-17T21:27:40.922119,15,EyesClosed
-18720.61416156461,-1627.2964033241753,5711.183632753329,3524.2666035016305,21910.208095336926,11495.792746042342,10740.16967298623,10672.220369842098,0.0,0.0,0.0,2019-03-17T21:27:40.922661,15,EyesClosed
-18722.737577287862,-1620.4120660319409,5797.059034950618,3757.3952981704833,21906.698871457444,11903.846192818428,10758.74397262859,10864.043040757542,0.0,0.0,0.0,2019-03-17T21:27:40.929073,15,EyesClosed
-18863.77708480085,-1751.0133088843,5706.780339095633,3786.519621195748,21739.44076769838,12314.96182858489,10616.475119170562,10890.775727126089,0.0,0.0,0.0,2019-03-17T21:27:40.929894,15,EyesClosed
-18879.088029752736,-1773.074480661688,5609.952582115243,3558.576531240527,21723.705139601843,11961.93837665777,10576.197275662098,10722.131815210798,0.0,0.0,0.0,2019-03-17T21:27:40.936076,15,EyesClosed
-18734.382836149078,-1643.5461215431835,5686.753176063678,3495.991646765667,21884.525940957777,11496.642112331643,10701.367044611818,10685.16202988172,0.0,0.0,0.0,2019-03-17T21:27:40.943884,15,EyesClosed
-18699.156486887514,-1600.5190134667175,5795.00267446073,3711.9318499483884,21921.20515360894,11784.42082219372,10752.776056859024,10866.658194858814,0.0,0.0,0.0,2019-03-17T21:27:40.944639,15,EyesClosed
-18838.92194496655,-1735.8588261436018,5740.240900545228,3808.334923784128,21770.889672146997,12284.317586936664,10635.384694979752,10950.365477843938,0.01,1.022,0.168,2019-03-17T21:27:40.951783,15,EyesClosed
-18879.646823364117,-1785.0550156897327,5636.349992316961,3609.2479359207077,21723.705139601843,12068.265625031665,10574.587950061315,10808.476604041649,0.0,0.0,0.0,2019-03-17T21:27:40.952753,15,EyesClosed
-18749.24674621186,-1676.6043515925828,5679.667673071346,3482.9158762593124,21869.84084485064,11535.668258150608,10688.78301248348,10728.479710636106,0.0,0.0,0.0,2019-03-17T21:27:40.958600,15,EyesClosed
-18687.22065534838,-1597.7026936653488,5797.2825523951715,3670.2234947947854,21940.33824686268,11690.655254203708,10769.495161711593,10885.523067179092,0.0,0.0,0.0,2019-03-17T21:27:40.959238,15,EyesClosed
-18808.277703318323,-1704.0075902947892,5769.007595659208,3811.531223241237,21802.629149273533,12238.652973014472,10668.331166306874,11005.909562815377,0.0,0.0,0.0,2019-03-17T21:27:40.966598,15,EyesClosed
-18884.07246876627,-1790.5758965701934,5650.655108768357,3639.020459535177,21712.551619118647,12156.063277252111,10575.884351239723,10883.578465411481,0.0,0.0,0.0,2019-03-17T21:27:40.967333,15,EyesClosed
-18777.544054692276,-1692.3176279446636,5661.048669940075,3467.44846909624,21840.291838680725,11596.554410046865,10668.912311662712,10771.03743207901,0.0,0.0,0.0,2019-03-17T21:27:40.974731,15,EyesClosed
-18689.120553627083,-1602.5530222121504,5781.636331276457,3609.404398131895,21946.574383565712,11611.127747431725,10774.099621069387,10901.34810225345,0.0,0.0,0.0,2019-03-17T21:27:40.975498,15,EyesClosed
-18776.04648781377,-1686.819098808658,5785.4808313227695,3793.4486619768936,21836.98378050134,12176.358661217531,10702.574038812405,11056.80448494011,0.0,0.0,0.0,2019-03-17T21:27:40.981781,15,EyesClosed
-18883.44661992152,-1794.8674315056123,5661.495704829181,3668.01067209371,21714.6750348419,12239.010600925756,10587.462554867572,10967.710431541256,0.0,0.0,0.0,2019-03-17T21:27:40.982537,15,EyesClosed
-18781.4332582275,-1708.500290930306,5649.045783167575,3471.583541820472,21822.589257072123,11691.862248404295,10660.06102085841,10829.509595574093,0.008,1.028,0.158,2019-03-17T21:27:40.989274,15,EyesClosed
-18678.838751177642,-1595.7804436421925,5765.721889224278,3562.0410516310994,21952.117616190626,11557.99765086146,10781.162772317264,10914.937962882277,0.0,0.0,0.0,2019-03-17T21:27:40.989933,15,EyesClosed
-18751.817196824217,-1658.0524036946779,5799.249505907239,3774.9861210568097,21874.37824897507,12095.333587567042,10736.593393873382,11084.364185853505,0.0,0.0,0.0,2019-03-17T21:27:40.996280,15,EyesClosed
-18880.6079483757,-1786.329065123685,5680.092356215997,3705.0028091672434,21728.421357681913,12299.069738277167,10605.634523109738,11026.137891547429,0.0,0.0,0.0,2019-03-17T21:27:40.997219,15,EyesClosed
-18825.577953526732,-1742.8996256470234,5628.236309079684,3481.6865303142704,21788.994585155797,11790.321682729922,10632.255450756009,10857.896311032333,0.0,0.0,0.0,2019-03-17T21:27:41.004264,15,EyesClosed
-18697.23423686436,-1611.60547871655,5739.950327867309,3524.7806936241027,21941.38877885208,11521.89958356614,10760.576815673927,10900.006997586132,0.0,0.0,0.0,2019-03-17T21:27:41.011338,15,EyesClosed
-18734.561650104723,-1638.3158133406419,5807.206726933328,3755.36128942505,21902.47439175539,11997.879981741904,10746.718734111635,11080.184409640362,0.0,0.0,0.0,2019-03-17T21:27:41.012224,15,EyesClosed
-18864.58174760124,-1767.5088962923166,5714.826967099544,3752.701431834869,21752.20361378236,12331.122139826077,10616.117491259276,11072.42835431437,0.0,0.0,0.0,2019-03-17T21:27:41.018655,15,EyesClosed
-18847.326200881744,-1762.010367156311,5633.73483821569,3518.253984243153,21770.35323028007,11895.151364225312,10603.62286610876,10890.172230025797,0.0,0.0,0.0,2019-03-17T21:27:41.019520,15,EyesClosed
-18702.442193322444,-1625.8658916790357,5726.159301538384,3496.8857165438794,21931.174031636005,11507.594467114743,10734.60408861686,10881.410346199316,0.0,0.0,0.0,2019-03-17T21:27:41.026880,15,EyesClosed
-18701.70458575542,-1606.375170514008,5820.237793950772,3726.7510565222574,21934.236220626382,11893.49733513562,10757.782847617013,11062.8618076875,0.004,1.026,0.164,2019-03-17T21:27:41.027797,15,EyesClosed
-18841.87237523465,-1738.272814544775,5742.6325372019455,3777.5118681802596,21778.444561772892,12328.350523513618,10627.427473953661,11096.590590070557,0.0,0.0,0.0,2019-03-17T21:27:41.033931,15,EyesClosed
-18860.759599299385,-1760.11046887761,5637.221710350717,3550.9545863812673,21748.716741647335,11999.802231765061,10576.890179740212,10920.414140273828,0.0,0.0,0.0,2019-03-17T21:27:41.034578,15,EyesClosed
-18723.22931566588,-1618.7133334533376,5705.08160651703,3468.409594107818,21904.463697011914,11517.496289908444,10695.600294542348,10865.182979724763,0.0,0.0,0.0,2019-03-17T21:27:41.041372,15,EyesClosed
-18689.344071071635,-1590.9077633509355,5817.309715427126,3682.248733311741,21946.68614228799,11783.102069270859,10751.144379513786,11034.005705595697,0.0,0.0,0.0,2019-03-17T21:27:41.042015,15,EyesClosed
-18816.346683066688,-1722.0230963257668,5769.968720670787,3790.9452665978993,21797.756468982276,12297.773337098759,10637.999849081023,11116.930677524886,0.0,0.0,0.0,2019-03-17T21:27:41.049666,15,EyesClosed
-18878.372773930165,-1788.2513151468415,5657.382983849405,3592.461775834772,21735.462157185335,12104.497802793718,10565.535493556918,10963.240082650194,0.0,0.0,0.0,2019-03-17T21:27:41.050306,15,EyesClosed
-18757.2263189824,-1678.5936568491052,5689.904772031877,3452.0034136776226,21876.05462980922,11560.724563685008,10670.566340752404,10861.204369211719,0.0,0.0,0.0,2019-03-17T21:27:41.057283,15,EyesClosed
-18673.966070886385,-1596.0263128312008,5815.4768723817915,3635.086552511043,21959.136063949594,11691.817544915384,10761.448533707684,11010.670484384356,0.0,0.0,0.0,2019-03-17T21:27:41.057861,15,EyesClosed
-18790.418659498533,-1705.4157501954735,5793.773328515688,3789.112423552564,21829.22772517535,12246.453731829373,10668.666442473703,11131.794587587667,0.0,0.0,0.0,2019-03-17T21:27:41.063624,15,EyesClosed
-18881.88199780965,-1800.4777193638945,5666.457792098259,3624.983564017244,21733.025817039706,12193.502449214751,10571.659871537671,11007.496536671702,-0.002,1.024,0.166,2019-03-17T21:27:41.070875,15,EyesClosed
-18777.409944225543,-1699.7160553593703,5671.822210767533,3442.8168467064916,21858.79908308972,11634.664134343164,10658.518750490994,10879.353985709427,0.0,0.0,0.0,2019-03-17T21:27:41.071686,15,EyesClosed
-18677.676460465966,-1598.3061907656422,5798.601305318035,3581.308255351574,21975.139912979594,11622.996523737494,10768.154057044276,10994.84544931,0.0,0.0,0.0,2019-03-17T21:27:41.078812,15,EyesClosed
-18761.42844694,-1673.9444940024011,5806.267953666205,3772.8403535891002,21869.572623917178,12183.041832809668,10699.288332377475,11144.333916227093,0.0,0.0,0.0,2019-03-17T21:27:41.079657,15,EyesClosed
-18867.509826124886,-1779.9588179539226,5688.943647020298,3662.4227359798833,21745.028703812208,12278.282615933731,10583.975682732545,11053.921109905375,0.0,0.0,0.0,2019-03-17T21:27:41.086748,15,EyesClosed
-18791.536246721298,-1722.5818899371493,5663.574417063524,3450.6176055213937,21835.08388222264,11730.441359334154,10639.96680259309,10896.743642895657,0.0,0.0,0.0,2019-03-17T21:27:41.087141,15,EyesClosed
-18668.176969072458,-1602.597725701061,5787.939523212854,3539.644603686882,21980.325517693225,11573.822685935818,10770.009251834066,10972.784277532612,0.0,0.0,0.0,2019-03-17T21:27:41.093275,15,EyesClosed
-18735.47807162739,-1662.3215868856416,5828.463235910325,3758.1552574819634,21907.972920891396,12098.507535279696,10729.418483903228,11137.717799868322,0.0,0.0,0.0,2019-03-17T21:27:41.093635,15,EyesClosed
-18857.004506230893,-1781.9704749549003,5714.111711276974,3702.58882076607,21760.630221442014,12329.557517714205,10594.682168326637,11085.325310865082,0.0,0.0,0.0,2019-03-17T21:27:41.101347,15,EyesClosed
-18806.78013643982,-1726.404038239007,5653.873759969922,3467.4931725851507,21813.961483712374,11825.838604669405,10612.787081335437,10904.812622644022,0.0,0.0,0.0,2019-03-17T21:27:41.101664,15,EyesClosed
-18678.36936454408,-1601.211917544832,5759.977490899264,3492.482422886184,21967.987354753895,11535.958830828527,10741.17550148672,10934.316925325027,-0.002,1.02,0.162,2019-03-17T21:27:41.109624,15,EyesClosed
-18711.89698122704,-1640.5509877861725,5825.557509131135,3720.9396029638774,21931.777528736297,11992.47085958372,10731.877175793312,11111.476851877791,0.0,0.0,0.0,2019-03-17T21:27:41.110267,15,EyesClosed
-18835.39036934261,-1766.883047447568,5734.384743497938,3730.573204824115,21779.852721673575,12346.857767922613,10602.460575397085,11110.851003033044,0.0,0.0,0.0,2019-03-17T21:27:41.116856,15,EyesClosed
-18827.187279127513,-1762.0327189007664,5653.40437333636,3498.383283422385,21791.967367168352,11934.736303655662,10588.848363023802,10935.300402081062,0.0,0.0,0.0,2019-03-17T21:27:41.117572,15,EyesClosed
-18680.291614567235,-1631.140903370488,5743.794827913622,3470.443602853251,21953.414017369036,11528.605106902733,10721.282448921496,10921.68818970778,0.0,0.0,0.0,2019-03-17T21:27:41.123560,15,EyesClosed
-18686.863027437095,-1621.9766881438122,5832.419494678914,3691.815279938612,21955.35861913665,11884.06489897548,10743.880062565811,11096.367072626004,0.0,0.0,0.0,2019-03-17T21:27:41.131260,15,EyesClosed
-18830.472985562443,-1750.7450879508363,5759.351642054516,3753.0590597461537,21800.081050405628,12338.721732940881,10615.71515985908,11142.411666203936,0.0,0.0,0.0,2019-03-17T21:27:41.132159,15,EyesClosed
-18853.338820140223,-1781.1434604100539,5653.73964950319,3531.7544378941584,21769.369753524035,12038.269583972644,10566.295452868397,10974.348899644483,0.0,0.0,0.0,2019-03-17T21:27:41.139327,15,EyesClosed
-18713.84158299465,-1657.8065345056696,5718.716170634767,3446.8848641973573,21931.777528736297,11546.33004025579,10694.25918987503,10918.648352461858,0.0,0.0,0.0,2019-03-17T21:27:41.140305,15,EyesClosed
-18669.540425484232,-1603.111815823533,5831.100741756051,3659.9416923453446,21985.77934334032,11786.499534428065,10759.839208106901,11084.990034698252,0.0,0.0,0.0,2019-03-17T21:27:41.146365,15,EyesClosed
-18799.80639216976,-1721.2184335253758,5785.793755745144,3778.2941792361953,21834.7039025669,12311.564363427684,10646.15823580721,11172.02772760722,0.0,1.022,0.168,2019-03-17T21:27:41.147033,15,EyesClosed
-18859.59730858771,-1794.5545070832381,5665.161390919851,3584.348092597496,21761.390180753493,12143.166320701399,10564.95434820108,11020.818176367065,0.0,0.0,0.0,2019-03-17T21:27:41.153966,15,EyesClosed
-18731.14183320306,-1684.852145296591,5697.191440724307,3441.8110182060027,21903.14494408905,11597.381424591711,10667.906483162224,10918.357779783939,0.0,0.0,0.0,2019-03-17T21:27:41.154863,15,EyesClosed
-18652.128416553547,-1604.765844913226,5821.4671398958135,3616.467549379772,21989.78030559782,11699.21597233009,10758.185179017208,11056.7597814512,0.0,0.0,0.0,2019-03-17T21:27:41.161996,15,EyesClosed
-18760.735542861887,-1701.012456537778,5809.710122312323,3785.0667578061534,21865.772827359775,12261.742325036803,10672.510942520017,11186.534009758712,0.0,0.0,0.0,2019-03-17T21:27:41.162634,15,EyesClosed
-18851.193052672512,-1795.5826873281824,5680.785260294111,3628.5151396411825,21758.909137118953,12230.226365354822,10565.334327856819,11061.163075108896,0.0,0.0,0.0,2019-03-17T21:27:41.169211,15,EyesClosed
-18742.831795553186,-1694.597505879105,5683.355710906471,3445.7672769745923,21886.023507836286,11669.912835349183,10653.355497521818,10928.527823511104,0.0,0.0,0.0,2019-03-17T21:27:41.169864,15,EyesClosed
-18645.512300194776,-1594.729911652793,5804.233944920772,3570.378252312929,22004.420698216047,11623.197689437591,10764.868350609346,11034.028057340152,0.0,0.0,0.0,2019-03-17T21:27:41.176701,15,EyesClosed
-18735.94745826095,-1678.8618777825689,5816.05801773763,3765.3525191965723,21900.820362665698,12176.626882150995,10698.081338176888,11185.215256835849,0.0,0.0,0.0,2019-03-17T21:27:41.177556,15,EyesClosed
-18847.90734623758,-1791.201745414942,5697.392606424404,3665.373166247984,21772.342535536594,12301.684892378438,10576.264330895465,11106.514764608713,0.0,0.0,0.0,2019-03-17T21:27:41.183776,15,EyesClosed
-18781.81323788324,-1730.114427818588,5660.9816147067095,3445.4990560411284,21852.831167320153,11758.336336414379,10621.370151206274,10942.430608562305,0.002,1.024,0.17,2019-03-17T21:27:41.191471,15,EyesClosed
-18659.07980907915,-1604.8776036355025,5784.609113289012,3524.6465831573705,22000.620901658644,11576.43784003709,10754.899472582278,11012.436272196326,0.0,0.0,0.0,2019-03-17T21:27:41.192196,15,EyesClosed
-18720.792975520253,-1664.5120578422616,5829.938451044375,3742.3749258965167,21934.303275859747,12089.008043886191,10719.02492273151,11181.124887600528,0.0,0.0,0.0,2019-03-17T21:27:41.198790,15,EyesClosed
-18849.650782305096,-1788.1842599134757,5717.531528178636,3690.764747949213,21781.394992040994,12342.700343453926,10581.628749564738,11135.773198100711,0.0,0.0,0.0,2019-03-17T21:27:41.199601,15,EyesClosed
-18808.791793440796,-1747.4817332603616,5650.4762948127145,3458.5524748030275,21825.584390829135,11860.372049852855,10593.47517412605,10960.043783193087,0.0,0.0,0.0,2019-03-17T21:27:41.206319,15,EyesClosed
-18674.055477864204,-1622.4460747773737,5757.272929820172,3480.412480880318,21989.26621547535,11549.325174012802,10732.301858937963,10987.55878061757,0.0,0.0,0.0,2019-03-17T21:27:41.207140,15,EyesClosed
-18696.83190546416,-1644.596653532583,5833.827654579599,3715.4857773167823,21969.77549431032,11995.242475896177,10739.476768908116,11171.82656190712,0.0,0.0,0.0,2019-03-17T21:27:41.214192,15,EyesClosed
-18841.671209534554,-1786.5302308237829,5739.3468307670155,3732.048419958165,21810.496963321802,12373.255178124331,10605.746281832015,11179.649672466478,0.0,0.0,0.0,2019-03-17T21:27:41.214834,15,EyesClosed
-18843.280535135335,-1782.68573077747,5650.2974808570725,3499.5902776229714,21813.447393589904,11981.94318794527,10584.601531577293,11002.89207731391,0.0,0.0,0.0,2019-03-17T21:27:41.222300,15,EyesClosed
-18706.55491430222,-1640.7745052307255,5726.025191071652,3445.610814763405,21967.20504369796,11544.76541814392,10706.463242347627,10967.621024563436,0.0,0.0,0.0,2019-03-17T21:27:41.222943,15,EyesClosed
-18693.210922862403,-1625.6200224900274,5824.305811441638,3669.329425016573,21984.147665995082,11874.990090726626,10740.683763108704,11137.829558590598,0.008,1.028,0.166,2019-03-17T21:27:41.229110,15,EyesClosed
-18827.321389594246,-1757.4059077985178,5754.523665252169,3742.21846368533,21824.489155350824,12342.275660309275,10614.374055191762,11184.54470450219,0.0,0.0,0.0,2019-03-17T21:27:41.230019,15,EyesClosed
-18854.43405561853,-1794.1968791719532,5648.598748278469,3528.5134349481386,21788.569902011146,12066.097505819502,10563.076801666833,11017.75598737669,0.0,0.0,0.0,2019-03-17T21:27:41.236948,15,EyesClosed
-18722.51405984331,-1672.0445957237002,5707.517946662659,3428.332916299453,21947.35669462165,11558.779961917397,10685.564361281915,10949.694925510279,0.0,0.0,0.0,2019-03-17T21:27:41.237738,15,EyesClosed
-18673.139056341537,-1616.0087723742454,5823.568203874613,3632.5831571320487,22007.035852317316,11771.456810409643,10755.190045260197,11110.538078610669,0.0,0.0,0.0,2019-03-17T21:27:41.243939,15,EyesClosed
-18806.109584106158,-1730.7626284077917,5785.033796433663,3765.8889610634997,21864.342315714635,12306.825793603159,10649.510997475505,11207.254076868783,0.0,0.0,0.0,2019-03-17T21:27:41.244657,15,EyesClosed
-18871.801361060305,-1798.0190274738106,5664.4461350972815,3585.37627284244,21790.35804156757,12172.782382104682,10569.983490703522,11065.14168562194,0.0,0.0,0.0,2019-03-17T21:27:41.252129,15,EyesClosed
-18750.09611250116,-1680.6723690834488,5688.474260386737,3433.1385413573435,21926.43546181148,11619.464948113555,10670.029898885477,10953.002983689665,0.0,0.0,0.0,2019-03-17T21:27:41.258336,15,EyesClosed
-18664.466579492877,-1597.7250454098041,5812.034703735674,3594.026397946644,22019.150497812094,11685.715518679086,10764.13074304232,11083.805392242122,0.0,0.0,0.0,2019-03-17T21:27:41.258995,15,EyesClosed
-18765.585871408686,-1689.568363376661,5801.14940418594,3761.3068534501617,21895.32183352969,12245.202034139877,10678.434154800672,11217.066492684662,0.0,0.0,0.0,2019-03-17T21:27:41.266653,15,EyesClosed
-18866.526349368854,-1798.3543036406404,5674.1914956797955,3616.0875697240317,21782.758448452765,12251.393467353997,10572.95627271608,11104.570162841103,0.006,1.026,0.164,2019-03-17T21:27:41.267383,15,EyesClosed
-18770.503255188854,-1716.9716020788674,5669.005890966165,3425.091913353433,21897.154676575028,11693.98566412755,10653.48960798855,10966.056402451564,0.0,0.0,0.0,2019-03-17T21:27:41.274580,15,EyesClosed
-18657.69400092292,-1601.9718768563125,5796.276723894683,3544.4055252558624,22023.30792228078,11624.091759215804,10772.177371046231,11067.443915300837,0.0,0.0,0.0,2019-03-17T21:27:41.275227,15,EyesClosed
-18742.004781008338,-1670.144697444999,5820.3495526730485,3750.5780161116145,21932.448081069957,12177.252730995742,10716.521527352515,11229.158786434984,0.0,0.0,0.0,2019-03-17T21:27:41.281657,15,EyesClosed
-18858.83734927623,-1783.7139110224143,5706.378007695438,3669.329425016573,21801.377451584038,12334.497253238827,10595.822107293858,11161.030669335207,0.0,0.0,0.0,2019-03-17T21:27:41.282313,15,EyesClosed
-18794.598435711676,-1730.3155935186855,5658.969957705732,3445.6555182523157,21869.527920428267,11799.999988079071,10629.461482699095,10989.995120763198,0.0,0.0,0.0,2019-03-17T21:27:41.289247,15,EyesClosed
-18668.02050686127,-1609.213842059832,5780.004653931219,3516.667010386826,22024.805489159287,11594.252180367968,10766.231807021119,11051.082438359552,0.0,0.0,0.0,2019-03-17T21:27:41.289959,15,EyesClosed
-18721.95526623193,-1651.2574733802646,5828.306773699138,3739.5362543506926,21966.62389834212,12094.439517788831,10738.247422963075,11223.50379508779,0.0,0.0,0.0,2019-03-17T21:27:41.297319,15,EyesClosed
-18838.63137228863,-1769.3193875931966,5719.967868324265,3707.2156318683187,21813.60385580109,12375.06566942521,10601.901781785702,11190.870248183042,0.0,0.0,0.0,2019-03-17T21:27:41.297967,15,EyesClosed
-18809.127069607624,-1748.1075821051102,5650.141018645885,3469.482477841673,21848.986667273843,11905.433166674753,10604.33812193133,11007.250667482695,0.0,0.0,0.0,2019-03-17T21:27:41.305286,15,EyesClosed
-18673.36257378609,-1612.3654380280302,5748.846322160522,3471.896466242846,22007.840515117707,11561.976261374506,10734.626440361315,11011.765719862668,0.0,0.0,0.0,2019-03-17T21:27:41.305990,15,EyesClosed
-18689.902864683016,-1628.1457696134771,5824.462273652825,3701.605344010037,21986.44989567398,11983.75367924615,10738.64975436327,11183.941207401896,0.006,1.026,0.156,2019-03-17T21:27:41.311486,15,EyesClosed
-18830.00359892888,-1771.688672505459,5732.507196963692,3724.337068121084,21823.863306506075,12376.004442692334,10600.918305029667,11193.59716100659,0.0,0.0,0.0,2019-03-17T21:27:41.318627,15,EyesClosed
-18813.4409562875,-1770.7498992383362,5648.755210489656,3504.7088271032367,21828.17719318595,12010.441662125786,10581.516990842461,11022.136929289929,0.0,0.0,0.0,2019-03-17T21:27:41.319580,15,EyesClosed
-18683.89024542454,-1647.2565111227646,5722.3818567254375,3447.845989208936,21981.554863638266,11558.265871794925,10706.776166770002,10979.981539247221,0.0,0.0,0.0,2019-03-17T21:27:41.326807,15,EyesClosed
-18673.295518552724,-1619.3615340425413,5827.233889965283,3672.928055873878,22009.382785485126,11875.012442471081,10754.184216759708,11154.213387276339,0.0,0.0,0.0,2019-03-17T21:27:41.327457,15,EyesClosed
-18819.990017412903,-1755.9753961533781,5757.965833898286,3757.261187703751,21849.724274840864,12361.341698329652,10630.713180388591,11215.79244325071,0.0,0.0,0.0,2019-03-17T21:27:41.333873,15,EyesClosed
-18857.317430653267,-1789.1900884139645,5647.659975011346,3549.434667758306,21805.713690008368,12119.115843667489,10573.336252371819,11055.396325039426,0.0,0.0,0.0,2019-03-17T21:27:41.334611,15,EyesClosed
-18715.76383301781,-1653.5149995702507,5701.572382637547,3440.447561794229,21962.175901195515,11605.271590384435,10697.299027120951,10978.059289224064,0.0,0.0,0.0,2019-03-17T21:27:41.341403,15,EyesClosed
-18656.50935846679,-1584.2692952477094,5822.964706774319,3638.707535112803,22031.287495051325,11789.360557718344,10777.519437971048,11132.82276783261,0.0,0.0,0.0,2019-03-17T21:27:41.342091,15,EyesClosed
-18782.863769872638,-1700.7665873487697,5789.839421491554,3776.08135653512,21891.38792650556,12336.330096284164,10675.707241977125,11240.26760342927,0.0,0.0,0.0,2019-03-17T21:27:41.349602,15,EyesClosed
-18855.97632598595,-1785.7032162789365,5666.904826987366,3597.5803253150375,21806.026614430742,12225.644257741484,10586.389671133718,11101.418566872904,0.002,1.022,0.16,2019-03-17T21:27:41.350326,15,EyesClosed
-18734.360484404624,-1672.6480928239935,5684.450946384782,3434.9713844026787,21939.86886022912,11665.487189947033,10680.512867035017,10981.568513103546,0.0,0.0,0.0,2019-03-17T21:27:41.357570,15,EyesClosed
-18650.496739208313,-1593.1652895409215,5804.837442021066,3584.7504239976915,22036.607210231687,11703.17223109868,10773.876103624834,11101.619732573,0.0,0.0,0.0,2019-03-17T21:27:41.358343,15,EyesClosed
-18754.298240458756,-1691.6023721220938,5803.116357698007,3759.876341805022,21920.02051115281,12266.100915205589,10691.64403577376,11238.144187706017,0.0,0.0,0.0,2019-03-17T21:27:41.364291,15,EyesClosed
-18847.795587515306,-1792.0958151931543,5683.378062650927,3632.3149361985847,21808.75352725429,12309.128023282055,10583.014557720966,11137.829558590598,0.0,0.0,0.0,2019-03-17T21:27:41.364934,15,EyesClosed
-18758.679182371998,-1715.5410904337277,5661.652167040368,3430.0763523669666,21908.978749391885,11750.826150277395,10647.611099196803,10988.564609118059,0.0,0.0,0.0,2019-03-17T21:27:41.371222,15,EyesClosed
-18648.12745429605,-1598.8649843770247,5782.843325477043,3536.828283885513,22037.277762565347,11649.416285683667,10764.734240142614,11076.988110183253,0.0,0.0,0.0,2019-03-17T21:27:41.379050,15,EyesClosed
-18726.22444942289,-1661.5839793186165,5812.593497347057,3749.9298155224105,21955.269212158826,12199.85034464006,10714.398111629262,11240.89345227402,0.0,0.0,0.0,2019-03-17T21:27:41.379796,15,EyesClosed
-18857.764465542372,-1789.5477163252494,5688.586019109013,3664.9261313588777,21810.6981290219,12371.645852523548,10581.204066420087,11169.613739206045,0.0,0.0,0.0,2019-03-17T21:27:41.387700,15,EyesClosed
-18804.634368972107,-1745.268910559286,5640.2615475966395,3437.765352459592,21877.015754820797,11844.815235711962,10615.268124969974,10998.421728422849,0.0,0.0,0.0,2019-03-17T21:27:41.388640,15,EyesClosed
-18680.492780267334,-1618.5792229866056,5754.590720485535,3485.4639751272175,22024.69373043701,11598.610770536754,10745.489388166594,11042.14174057743,0.004,1.02,0.162,2019-03-17T21:27:41.393953,15,EyesClosed
-18733.511118115322,-1651.8833222250132,5811.833538035577,3709.8084342251345,21974.62582285712,12081.296692049109,10724.098768722864,11213.199640893894,0.0,0.0,0.0,2019-03-17T21:27:41.394597,15,EyesClosed
-18860.44667487701,-1789.8606407476236,5713.731731621234,3697.7831957081794,21826.83608851863,12391.762422533326,10594.972741004556,11196.569943019145,0.0,0.0,0.0,2019-03-17T21:27:41.402086,15,EyesClosed
-18826.024988415837,-1787.9607424689225,5639.3227743295165,3467.5825795629717,21853.881699309553,11942.157082814823,10594.793927048913,11018.873574599455,0.0,0.0,0.0,2019-03-17T21:27:41.402993,15,EyesClosed
-18679.88928316704,-1644.1943221323875,5739.369182511471,3463.3133963720084,22017.764689655865,11579.38827030519,10734.469978150128,11022.718074645767,0.0,0.0,0.0,2019-03-17T21:27:41.409811,15,EyesClosed
-18698.575341531676,-1635.1865691168987,5826.943317287364,3693.469309028305,22012.6461401756,11984.46893506872,10755.950004571678,11204.50481230078,0.0,0.0,0.0,2019-03-17T21:27:41.410572,15,EyesClosed
-18842.945258968506,-1776.7625184968138,5743.236034302239,3730.1261699350084,21855.04399002123,12399.272608670308,10628.030971053955,11228.64469631251,0.0,0.0,0.0,2019-03-17T21:27:41.416929,15,EyesClosed
-18845.850985747693,-1807.4514636339504,5647.659975011346,3504.7758823366025,21843.71165558239,12051.77003762365,10596.358549160785,11057.989127396242,0.0,0.0,0.0,2019-03-17T21:27:41.417692,15,EyesClosed
-18709.32653061468,-1658.2535693947757,5721.286621247127,3435.708991969704,22006.07472730574,11586.540828530888,10727.295068179974,11014.000894308198,0.0,0.0,0.0,2019-03-17T21:27:41.424423,15,EyesClosed
-18684.203169846915,-1627.1399411129883,5829.089084755074,3652.6103201640035,22043.31273356828,11878.029927972548,10781.56510371746,11184.790573691198,0.0,0.0,0.0,2019-03-17T21:27:41.425060,15,EyesClosed
-18821.845212202694,-1766.883047447568,5773.433241061359,3753.1261149795196,21891.745554416844,12380.586550305672,10663.39143078225,11257.858426315597,0.006,1.028,0.16,2019-03-17T21:27:41.431623,15,EyesClosed
-18869.70029708151,-1818.5379288837826,5662.188608907296,3550.5969584699824,21836.782614801243,12161.539454643662,10594.52570611545,11100.748014539244,0.0,0.0,0.0,2019-03-17T21:27:41.439147,15,EyesClosed
-18741.200118207948,-1688.9648662763675,5705.819214084055,3428.1988058327206,21984.52764565082,11632.87599478674,10707.35731212584,11014.693798386312,0.0,0.0,0.0,2019-03-17T21:27:41.440009,15,EyesClosed
-18688.897036182527,-1626.536444012695,5817.510881127225,3612.4665871222724,22051.31465808328,11784.62198789382,10780.827496150434,11161.790628646688,0.0,0.0,0.0,2019-03-17T21:27:41.446043,15,EyesClosed
-18813.463308031955,-1740.82091341268,5783.491526066247,3753.8190190576343,21910.38690929257,12332.060913093199,10673.986157654066,11271.269472988783,0.0,0.0,0.0,2019-03-17T21:27:41.446950,15,EyesClosed
-18883.31250945479,-1815.3192776822184,5667.2624548986505,3590.897153722901,21822.902181494497,12255.99792671179,10582.411060620674,11146.34557322807,0.0,0.0,0.0,2019-03-17T21:27:41.453870,15,EyesClosed
-18767.642231898575,-1708.5673461636718,5681.388757394405,3420.576860973461,21953.01168596884,11699.50654500801,10674.20967509862,11027.523699703659,0.0,0.0,0.0,2019-03-17T21:27:41.454836,15,EyesClosed
-18668.981631872848,-1616.5228624967174,5809.91128801242,3567.6289877449262,22066.335030357248,11716.583277771864,10782.392118262305,11151.955861086353,0.0,0.0,0.0,2019-03-17T21:27:41.461965,15,EyesClosed
-18773.878368601607,-1709.7072851308926,5808.011389733719,3748.856931788556,21947.937839977487,12274.304005420687,10696.337902109373,11289.508496464312,0.0,0.0,0.0,2019-03-17T21:27:41.462618,15,EyesClosed
-18886.64291937863,-1821.466007407428,5679.690024815801,3621.787264560135,21819.571771570656,12333.15614857151,10572.397479104697,11183.583579490612,0.0,0.0,0.0,2019-03-17T21:27:41.469077,15,EyesClosed
-18801.125145092625,-1747.5487884937274,5653.963166947743,3414.8548143929024,21914.790202950266,11778.721127357618,10634.177700779164,11029.825929382556,0.008,1.034,0.152,2019-03-17T21:27:41.469843,15,EyesClosed
-18691.355728072613,-1636.5276737842173,5770.214589859795,3505.7146556037255,22045.391445802623,11640.58734662382,10751.434952191705,11104.234886674272,0.0,0.0,0.0,2019-03-17T21:27:41.476617,15,EyesClosed
-18760.80259809525,-1692.0047035222894,5805.91032575492,3719.1961668963636,21969.14964546557,12177.096268784557,10708.45254760415,11268.162580509494,0.0,0.0,0.0,2019-03-17T21:27:41.477260,15,EyesClosed
-18879.31154719729,-1797.5049373513386,5688.116632475452,3649.2799102401627,21822.924533238955,12379.0219281938,10579.393575119208,11210.048044925696,0.0,0.0,0.0,2019-03-17T21:27:41.484557,15,EyesClosed
-18819.699444734986,-1738.4516285004174,5639.814512707533,3424.577823230961,21885.665879925,11871.637329058329,10615.469290670073,11040.487711487736,0.0,0.0,0.0,2019-03-17T21:27:41.485508,15,EyesClosed
-18680.85040817862,-1615.4499787628627,5757.608205987001,3470.1306784308767,22045.816128947274,11612.021817209938,10752.910167325756,11080.206761384818,0.0,0.0,0.0,2019-03-17T21:27:41.491739,15,EyesClosed
-18716.099109184637,-1664.9590927313677,5822.316506185116,3699.8172044536122,22006.96879708395,12087.957511896791,10740.8849288088,11257.098467004118,0.0,0.0,0.0,2019-03-17T21:27:41.492460,15,EyesClosed
-18833.334008852722,-1788.564239569216,5725.46639746027,3695.5256695181934,21854.149920243017,12422.943106048479,10611.445976668118,11248.090713988628,0.0,0.0,0.0,2019-03-17T21:27:41.499087,15,EyesClosed
-18816.793717955796,-1790.3747308700956,5650.073963412519,3468.096669685444,21874.847635608632,11995.153068918356,10608.406139422195,11074.104735148518,0.0,0.0,0.0,2019-03-17T21:27:41.506325,15,EyesClosed
-18688.5617600157,-1656.3313193716192,5750.23213031675,3458.5524748030275,22043.69271322402,11615.978075978528,10750.9879173026,11072.853037459021,0.0,0.0,0.0,2019-03-17T21:27:41.506980,15,EyesClosed
-18694.55202752972,-1663.886208997513,5836.331049958593,3683.858058912523,22040.36230330018,11997.321188130521,10770.098658811887,11250.258833200793,0.0,1.026,0.16,2019-03-17T21:27:41.514222,15,EyesClosed
-18836.954991454484,-1789.8606407476236,5748.488694249237,3724.046495443165,21875.674650153476,12426.295867716774,10632.68013390066,11277.550313180724,0.0,0.0,0.0,2019-03-17T21:27:41.515167,15,EyesClosed
-18853.62939281814,-1799.7624635413247,5642.831998209,3498.048007255555,21853.36760918708,12098.038148646136,10589.675377568648,11100.256276161228,0.0,0.0,0.0,2019-03-17T21:27:41.522176,15,EyesClosed
-18709.661806781507,-1669.2506276667868,5709.619010641457,3420.129826084355,22016.512991966367,11619.420244624645,10717.326190152908,11045.874481901465,0.0,0.0,0.0,2019-03-17T21:27:41.522806,15,EyesClosed
-18687.265358837292,-1645.6471855219825,5811.7217793133,3628.626898363459,22057.059056408296,11880.73448905164,10768.623443677836,11205.331826845626,0.0,0.0,0.0,2019-03-17T21:27:41.528956,15,EyesClosed
-18821.86756394715,-1768.4923730483501,5749.673336705368,3727.3769053670057,21896.75234517483,12382.397041606551,10641.889052616245,11273.772868367776,0.0,0.0,0.0,2019-03-17T21:27:41.529610,15,EyesClosed
-18861.743076055416,-1823.6117748751374,5641.692059241779,3537.6776501748145,21840.22478344736,12189.993225335267,10574.409136105674,11124.7761398287,0.0,0.0,0.0,2019-03-17T21:27:41.536956,15,EyesClosed
-18729.80072853574,-1694.3963401790072,5691.067062743552,3419.5933842174277,21990.942596309495,11660.234530000036,10689.855896217334,11040.286545787638,0.0,0.0,0.0,2019-03-17T21:27:41.537617,15,EyesClosed
-18661.784370158242,-1626.402333545963,5815.454520637336,3603.637648062426,22068.637260036143,11794.255589754057,10779.017004849555,11187.808059192665,0.0,0.0,0.0,2019-03-17T21:27:41.545135,15,EyesClosed
-18768.916281332527,-1717.6645061569818,5790.465270336303,3754.2213504578294,21928.29065660127,12350.434047035462,10679.507038534528,11301.153755325528,0.0,0.0,0.0,2019-03-17T21:27:41.545780,15,EyesClosed
-18850.678962550042,-1788.9665709694114,5671.397527622882,3594.406377602384,21831.529954854246,12301.282560978241,10581.494639098006,11175.939282886897,0.0,1.016,0.164,2019-03-17T21:27:41.552086,15,EyesClosed
-18750.364333434623,-1700.8783460710463,5687.848411541988,3426.455369765207,21961.326534906213,11747.719257798108,10678.50121003404,11055.821008184077,0.0,0.0,0.0,2019-03-17T21:27:41.552812,15,EyesClosed
-18654.341239254623,-1608.7221036818153,5816.013314248719,3565.0138336436553,22077.354440373714,11733.794121002451,10792.942141645211,11167.333861271603,0.0,0.0,0.0,2019-03-17T21:27:41.558692,15,EyesClosed
-18742.697685086452,-1676.2914271702084,5831.01133477823,3765.687795363402,21974.357601923657,12299.472069677362,10732.771245571525,11317.71639796691,0.0,0.0,0.0,2019-03-17T21:27:41.566545,15,EyesClosed
-18853.87526200715,-1777.5448295527494,5710.669542630857,3659.829933623068,21849.143129485026,12395.919847002013,10623.694732629625,11229.717580046366,0.0,0.0,0.0,2019-03-17T21:27:41.567437,15,EyesClosed
-18775.822970369216,-1717.4409887124289,5687.155507463874,3451.466971810695,21943.5792498087,11848.704439247185,10686.570189782404,11072.696575247834,0.0,0.0,0.0,2019-03-17T21:27:41.574375,15,EyesClosed
-18658.83393989014,-1611.7172374388263,5800.478851852281,3528.647545414871,22076.817998506787,11684.329710522856,10808.677769741747,11139.125959769006,0.0,0.0,0.0,2019-03-17T21:27:41.575202,15,EyesClosed
-18720.748272031342,-1664.7802787757253,5835.615794136023,3743.045478230176,22001.693785392497,12205.974722620813,10767.997594833088,11304.752386182832,0.0,0.0,0.0,2019-03-17T21:27:41.581099,15,EyesClosed
-18855.506939352388,-1796.7449780398583,5721.08545554703,3685.243867068752,21855.17810048796,12435.817710854735,10640.570299693383,11256.807894326199,0.0,0.0,0.0,2019-03-17T21:27:41.581808,15,EyesClosed
-18807.115412606647,-1756.4894862758501,5669.721146788735,3458.8206957364914,21914.43257503898,11941.397123503342,10669.87343667429,11087.873409732987,0.0,0.0,0.0,2019-03-17T21:27:41.589148,15,EyesClosed
-18667.148788827515,-1621.4178945324297,5777.389499829948,3485.955713505234,22071.207710648505,11642.420189669156,10805.213249351174,11113.734378067778,0.006,1.014,0.162,2019-03-17T21:27:41.589802,15,EyesClosed
-18688.673518737975,-1632.593766760083,5853.720707144822,3722.7724460092127,22044.475024279956,12101.167392869878,10808.364845319373,11295.722281422888,0.0,0.0,0.0,2019-03-17T21:27:41.597350,15,EyesClosed
-18827.38844482761,-1760.8033729557244,5759.619862987979,3728.628603056503,21885.62117643609,12454.906100619568,10674.813172198912,11294.738804666855,0.0,0.0,0.0,2019-03-17T21:27:41.598007,15,EyesClosed
-18820.504107535377,-1755.170733352987,5670.5481613335805,3491.0295594965887,21894.04778409574,12041.868214829949,10657.9152533907,11118.942334525864,0.0,0.0,0.0,2019-03-17T21:27:41.604445,15,EyesClosed
-18675.351879042613,-1609.2585455487426,5758.099944365018,3459.9159312148013,22054.26508835138,11637.413398911167,10790.774022433046,11104.368997141004,0.0,0.0,0.0,2019-03-17T21:27:41.605093,15,EyesClosed
-18657.02344858926,-1604.6093827020388,5854.167742033928,3690.5859339935705,22061.97644018846,11998.394071864375,10819.42895882475,11280.56779868219,0.0,0.0,0.0,2019-03-17T21:27:41.611905,15,EyesClosed
-18784.741316406886,-1733.1989685534202,5782.932732454865,3752.992004512788,21904.95543538993,12450.502806961871,10692.582809040881,11321.650304991044,0.0,0.0,0.0,2019-03-17T21:27:41.612623,15,EyesClosed
-18817.53132552282,-1764.3125968352076,5677.119574203441,3534.2354815286976,21877.686307154454,12148.68720158186,10643.833654383858,11150.97238433032,0.0,0.0,0.0,2019-03-17T21:27:41.618802,15,EyesClosed
-18691.26632109479,-1663.1038979415773,5741.000859856708,3444.739096729648,22034.528497997344,11654.847759586306,10767.304690754974,11090.645026045446,0.0,0.0,0.0,2019-03-17T21:27:41.626631,15,EyesClosed
-18659.348030012614,-1621.9319846549017,5852.826637366609,3649.458724195805,22087.010393978406,11890.546904867519,10828.548470562515,11251.577586123656,0.0,0.0,0.0,2019-03-17T21:27:41.627487,15,EyesClosed
-18794.330214778212,-1728.2815847732527,5811.2523926797385,3768.951150053877,21943.66865678652,12414.36003617764,10717.12502445281,11342.01274418983,0.006,1.024,0.16,2019-03-17T21:27:41.633853,15,EyesClosed
-18850.120168938658,-1792.4087396155287,5696.856164557477,3580.503592551183,21877.99923157683,12251.080542931622,10642.24668052753,11196.905219185976,0.0,0.0,0.0,2019-03-17T21:27:41.634687,15,EyesClosed
-18730.80655703623,-1694.0834157566328,5725.958135838287,3431.5962709899272,22015.574218699243,11698.701882207619,10744.640021877292,11089.750956267233,0.0,0.0,0.0,2019-03-17T21:27:41.641308,15,EyesClosed
-18655.212957288382,-1615.2264613183095,5849.96561407633,3603.0117992176774,22100.64495809614,11795.52963918801,10834.471682843172,11226.834205011632,0.0,0.0,0.0,2019-03-17T21:27:41.641958,15,EyesClosed
-18768.51394993233,-1710.914279331479,5832.82182607911,3768.1464872534857,21971.094247233184,12355.396134304541,10741.331963697907,11351.020497205318,0.0,0.0,0.0,2019-03-17T21:27:41.649453,15,EyesClosed
-18849.047285204804,-1790.5088413368276,5714.201118254795,3627.308145440596,21872.47835069637,12341.87332890908,10645.040648584443,11239.7535133068,0.0,0.0,0.0,2019-03-17T21:27:41.650132,15,EyesClosed
-18745.782225821284,-1685.1874214634206,5710.490728675214,3442.7944949620364,21986.986337540908,11781.917426814727,10721.997704744066,11100.904476750431,0.0,0.0,0.0,2019-03-17T21:27:41.657765,15,EyesClosed
-18641.712503637376,-1577.0943852775558,5836.129884258496,3573.507496536672,22105.741155831955,11739.22559490509,10839.47847360116,11205.667103012456,0.0,0.0,0.0,2019-03-17T21:27:41.658482,15,EyesClosed
-18720.502402842332,-1669.5859038336164,5857.140524046484,3780.9093333374663,22011.863829119662,12300.567305155671,10784.023795607543,11362.509293855346,0.0,0.0,0.0,2019-03-17T21:27:41.664166,15,EyesClosed
-18832.43993907451,-1781.7022540214366,5734.094170820019,3680.0359106106653,21880.413219978003,12420.909097303045,10659.658689458214,11278.354975981114,0.0,0.0,0.0,2019-03-17T21:27:41.664817,15,EyesClosed
-18762.926013818505,-1720.0337910692444,5696.543240135103,3459.9159312148013,21963.047619229274,11874.677166304251,10706.776166770002,11111.00746524423,0.004,1.028,0.16,2019-03-17T21:27:41.672216,15,EyesClosed
-18641.824262359652,-1604.564679213128,5815.610982848523,3538.057629830555,22108.691586100053,11686.877809390762,10832.638839797835,11173.54764623018,0.0,0.0,0.0,2019-03-17T21:27:41.672866,15,EyesClosed
-18701.19049563295,-1647.4576768228624,5864.963634605841,3766.5148099082485,22046.531384769845,12205.728853431805,10801.23463883813,11346.326630869704,0.0,0.0,0.0,2019-03-17T21:27:41.679418,15,EyesClosed
-18828.64014251711,-1778.6177132866042,5754.769534441178,3724.627640799003,21895.500647485336,12465.9925658694,10665.760715694514,11305.37823502758,0.0,0.0,0.0,2019-03-17T21:27:41.687126,15,EyesClosed
-18780.24861577137,-1741.2232448128755,5695.2021354677845,3499.8137950675246,21941.277020129804,11989.94511246027,10677.78595421147,11131.928698054398,0.0,0.0,0.0,2019-03-17T21:27:41.687617,15,EyesClosed
-18642.40540771549,-1601.6813041783935,5803.496337353747,3519.639792399382,22098.029803994872,11673.958501095594,10807.604886007892,11151.419419219425,0.0,0.0,0.0,2019-03-17T21:27:41.693650,15,EyesClosed
-18678.436419777445,-1632.7055254823597,5870.752736419766,3741.860835774045,22063.764579744886,12101.882648692448,10795.736109702124,11317.649342733544,0.0,0.0,0.0,2019-03-17T21:27:41.694365,15,EyesClosed
-18810.937560908504,-1770.7051957494255,5786.24079063425,3760.815115072145,21913.516153516313,12480.722365465446,10664.82194242739,11327.864089949619,0.0,0.0,0.0,2019-03-17T21:27:41.701713,15,EyesClosed
-18794.2855112893,-1769.498201548839,5702.913487304865,3529.31809774853,21921.898057687053,12090.01387238668,10644.995945095534,11152.425247719913,0.0,0.0,0.0,2019-03-17T21:27:41.702521,15,EyesClosed
-18642.40540771549,-1633.532540027206,5782.306883610116,3480.121908202399,22081.84714100923,11658.73696312153,10772.870275124345,11119.322314181605,0.0,0.0,0.0,2019-03-17T21:27:41.709700,15,EyesClosed
-18632.101253521592,-1620.9708596433236,5872.674986442922,3694.855117184534,22092.03953648085,11989.27456012661,10801.413452793771,11285.70869990691,-0.002,1.028,0.158,2019-03-17T21:27:41.710344,15,EyesClosed
-18760.08734227268,-1742.6761082024705,5804.546869343147,3768.682929120413,21939.757101506842,12464.0926675907,10679.082355389877,11338.48116856589,0.0,0.0,0.0,2019-03-17T21:27:41.716420,15,EyesClosed
-18787.200008296968,-1768.201800370431,5693.5034028891805,3550.775772425625,21901.267397554806,12188.942693345869,10621.951296562112,11169.054945594662,0.0,0.0,0.0,2019-03-17T21:27:41.717257,15,EyesClosed
-18650.11675955257,-1629.4868742807955,5748.555749482603,3443.1968263622316,22053.862756951185,11677.758297652996,10738.470940407627,11093.371938868993,0.0,0.0,0.0,2019-03-17T21:27:41.724580,15,EyesClosed
-18593.768011780743,-1589.7007691503488,5871.088012586595,3656.276006254674,22118.101670515738,11893.653797346808,10813.282229099541,11259.870083316575,0.0,0.0,0.0,2019-03-17T21:27:41.725513,15,EyesClosed
-18743.010609508827,-1733.3330790201521,5829.983154533285,3788.9336095969215,21970.5354536218,12423.233678726398,10700.49532657806,11355.088514696183,0.0,0.0,0.0,2019-03-17T21:27:41.732405,15,EyesClosed
-18821.889915691605,-1806.6468008335592,5707.763815851667,3601.0671974500656,21890.404449749523,12281.501267135296,10611.870659812768,11206.136489646016,0.0,0.0,0.0,2019-03-17T21:27:41.733052,15,EyesClosed
-18696.921312441984,-1694.3516366900965,5730.56259519608,3442.056887395011,22025.118413581662,11723.80289123093,10707.670236548214,11092.209648157317,0.0,0.0,0.0,2019-03-17T21:27:41.739606,15,EyesClosed
-18613.325788179136,-1605.1234728245108,5862.035556082196,3611.1701859438645,22126.841202597763,11804.537392203498,10812.9022494438,11232.064513214173,0.0,0.0,0.0,2019-03-17T21:27:41.740532,15,EyesClosed
-18716.881420240574,-1703.0241135387557,5861.6108729375455,3796.4214439894495,22013.07082332025,12377.479657826383,10746.629327133815,11377.596721362677,0.0,0.0,0.0,2019-03-17T21:27:41.746196,15,EyesClosed
-18801.303959048266,-1805.4845101218832,5737.491635977225,3656.8347998660565,21900.03805160976,12384.185181162977,10638.446883970128,11266.46384793089,0.0,1.026,0.16,2019-03-17T21:27:41.753908,15,EyesClosed
-18707.672501524987,-1710.0425612977222,5724.237051515228,3459.1336201588656,22002.140820281606,11818.507232488064,10703.333998123884,11115.969552513308,0.0,0.0,0.0,2019-03-17T21:27:41.754758,15,EyesClosed
-18601.50171536228,-1593.3664552410194,5846.031707052196,3577.866086705457,22125.27658048589,11740.343182127855,10816.590287278925,11210.6962455149,0.0,0.0,0.0,2019-03-17T21:27:41.762080,15,EyesClosed
-18685.208998347403,-1664.668520053449,5871.378585264514,3788.777147385734,22036.718968953966,12291.134868995532,10761.22501626313,11372.567578860233,0.0,0.0,0.0,2019-03-17T21:27:41.762912,15,EyesClosed
-18802.265084059847,-1778.4388993309617,5753.1378570959405,3701.538288776671,21900.84271441015,12440.265708001341,10633.954183334612,11300.214982058404,0.0,0.0,0.0,2019-03-17T21:27:41.769134,15,EyesClosed
-18728.549030846243,-1711.9648113208787,5714.983429310731,3483.988759993167,21980.4372764155,11909.903515565815,10674.746116965547,11133.940355055376,0.0,0.0,0.0,2019-03-17T21:27:41.769797,15,EyesClosed
-18609.190715454904,-1589.343141239064,5828.262070210228,3547.534769479605,22127.087071786773,11693.404518771711,10803.402758050295,11186.019919636241,0.0,0.0,0.0,2019-03-17T21:27:41.776630,15,EyesClosed
-18665.204187059902,-1633.309022582653,5879.156992334962,3771.3427867105947,22068.637260036143,12194.351815504053,10778.435859493717,11356.563729830234,0.0,0.0,0.0,2019-03-17T21:27:41.777276,15,EyesClosed
-18796.408927012555,-1777.7906987417578,5771.354528827015,3738.5751293391145,21914.47727852789,12476.922568908045,10646.985250352056,11322.633781747078,0.0,0.0,0.0,2019-03-17T21:27:41.784507,15,EyesClosed
-18762.14370276257,-1749.560445494705,5703.896964060898,3505.826414326002,21952.899927246563,12013.772072049627,10659.077544102376,11144.848006349564,0.0,0.0,0.0,2019-03-17T21:27:41.785220,15,EyesClosed
-18626.35685519658,-1610.9796298718013,5802.021122219697,3506.116987003921,22113.094879757748,11669.868131860272,10795.46788876866,11154.503959954258,0.002,1.03,0.158,2019-03-17T21:27:41.792678,15,EyesClosed
-18638.31503848017,-1603.4470919903627,5880.49809700228,3735.714106048835,22098.14156271715,12089.186857841833,10805.637932495825,11329.987505672874,0.0,0.0,0.0,2019-03-17T21:27:41.793485,15,EyesClosed
-18780.09215356018,-1750.6333292285597,5791.180526158872,3760.435135416405,21938.013665439328,12483.583388755726,10670.342823307852,11340.984563944885,0.0,0.0,0.0,2019-03-17T21:27:41.799835,15,EyesClosed
-18789.926921120517,-1771.8898382055568,5696.163260479362,3527.9099378478454,21935.39851133806,12112.142099397433,10639.497415959528,11162.461180980346,0.0,0.0,0.0,2019-03-17T21:27:41.800500,15,EyesClosed
-18645.02056181676,-1639.791028474692,5775.489601551247,3475.159820933321,22100.488495884954,11672.12565805026,10771.79739139049,11131.928698054398,0.0,0.0,0.0,2019-03-17T21:27:41.806385,15,EyesClosed
-18630.089596520615,-1611.113740338533,5875.625416711023,3697.045588141154,22123.935475818573,11985.005376935647,10813.796319222012,11302.964246626407,0.0,0.0,0.0,2019-03-17T21:27:41.815736,15,EyesClosed
-18770.637365655588,-1745.4924280038392,5811.185337446373,3783.7033013943797,21965.34984890817,12467.981871125921,10686.279617104485,11361.302299654759,0.0,0.0,0.0,2019-03-17T21:27:41.816431,15,EyesClosed
-18801.147496837082,-1781.8587162326237,5711.5189089201585,3581.7776419851357,21927.01660716732,12233.981458423312,10632.635430411749,11208.572829791645,0.0,0.0,0.0,2019-03-17T21:27:41.822266,15,EyesClosed
-18668.154617328004,-1659.6170258065495,5761.072726377574,3462.575788804983,22078.44967585202,11716.918553938694,10745.847016077878,11129.268840464216,0.0,0.0,0.0,2019-03-17T21:27:41.822916,15,EyesClosed
-18614.622189357542,-1601.1895658003768,5870.551570719668,3647.178846261364,22137.257115513938,11892.469154890676,10811.09175814292,11275.963339324397,0.0,0.0,0.0,2019-03-17T21:27:41.828732,15,EyesClosed
-18741.401283908046,-1713.305915988197,5834.341744702071,3780.2164292593516,21993.44599168849,12431.570879408227,10701.16587891172,11377.484962640401,0.008,1.024,0.156,2019-03-17T21:27:41.829518,15,EyesClosed
-18812.502183020377,-1806.6020973446487,5711.809481598078,3599.3908166159176,21906.296540057247,12318.24753501982,10606.170964976665,11231.595126580612,0.0,0.0,0.0,2019-03-17T21:27:41.836611,15,EyesClosed
-18685.87955068106,-1688.271962198253,5732.507196963692,3435.1054948694104,22040.161137600084,11758.604557347842,10698.170745154708,11108.39231114296,0.0,0.0,0.0,2019-03-17T21:27:41.836982,15,EyesClosed
-18596.941959493393,-1594.8193186306141,5864.382489250003,3598.541450326616,22146.66719992962,11802.19045903569,10799.781775448535,11235.350219649103,0.0,0.0,0.0,2019-03-17T21:27:41.844622,15,EyesClosed
