eeg1,eeg2,eeg3,eeg4,eeg5,eeg6,eeg7,eeg8,accx,accy,accz,iso_utc,session_id,command_name
0.0,0.0,0.0,0.0,0.0,0.0,0.0,0.0,0.012,1.04,0.166,2019-03-17T21:28:57.645460,17,EyesClosed
-18867.532177869343,-2839.252691179835,7140.8906150925895,2784.3791585420563,22593.970309969227,12549.29751745433,8409.240354208989,11782.945607059672,0.0,0.0,0.0,2019-03-17T21:28:57.657775,17,EyesClosed
-18934.810928679817,-2904.698598944974,7032.127026573065,2637.327031770591,22511.022986295582,12501.308322108785,8326.874175891182,11661.039192800426,0.0,0.0,0.0,2019-03-17T21:28:57.663800,17,EyesClosed
-18828.908363450573,-2805.5239087967766,7025.689724169937,2458.7142418282324,22625.28510395111,11982.61374027893,8410.80497632086,11520.647885876642,0.0,0.0,0.0,2019-03-17T21:28:57.664339,17,EyesClosed
-18743.65881009803,-2730.6008613825875,7133.916870822534,2581.1570979544044,22724.035110954657,11967.79453370506,8506.984532712047,11615.307523644868,0.0,0.0,0.0,2019-03-17T21:28:57.670076,17,EyesClosed
-18834.384540842122,-2816.409208346511,7153.69816466548,2772.2421613028246,22624.078109750524,12488.768993469357,8438.342325489799,11762.963147516626,0.0,0.0,0.0,2019-03-17T21:28:57.670537,17,EyesClosed
-18932.687512956563,-2907.2019943239684,7049.606090737116,2669.357081575046,22511.13474501786,12571.001061320432,8334.518472494898,11679.546437209421,0.0,0.0,0.0,2019-03-17T21:28:57.677885,17,EyesClosed
-18867.01808774687,-2849.1098104846255,7002.287447725231,2446.845465522464,22588.941167466783,12053.133494035423,8386.396871375666,11507.974446770484,0.0,0.0,0.0,2019-03-17T21:28:57.678354,17,EyesClosed
-18758.433313182988,-2733.5736433951433,7107.474757131906,2523.0202106261504,22715.67555852837,11911.669303377785,8505.799890255916,11569.754668444952,0.01,1.028,0.158,2019-03-17T21:28:57.684488,17,EyesClosed
-18821.711101735964,-2783.7086062083968,7151.060658819754,2736.8593498300734,22644.798176860593,12397.193896435965,8465.902026403193,11734.867004736305,0.0,0.0,0.0,2019-03-17T21:28:57.685005,17,EyesClosed
-18934.140376346157,-2909.727741447418,7057.183332107465,2695.0168842097387,22515.046300297538,12610.317779817316,8354.880911693683,11699.394786285733,0.0,0.0,0.0,2019-03-17T21:28:57.692668,17,EyesClosed
-18882.865474565682,-2871.796831106762,6994.374930188052,2467.945512288274,22567.46114104523,12142.004029989725,8382.261798651434,11522.793653344352,0.0,0.0,0.0,2019-03-17T21:28:57.693380,17,EyesClosed
-18759.66265912803,-2749.376326725045,7083.558390564727,2484.7316723742097,22708.098317158023,11869.513913335075,8506.40338735621,11539.222185519004,0.0,0.0,0.0,2019-03-17T21:28:57.702611,17,EyesClosed
-18792.989110110895,-2770.766946168774,7155.08397282171,2712.160672206959,22672.24611905171,12299.784994099737,8495.629846528751,11716.180946371669,0.0,0.0,0.0,2019-03-17T21:28:57.703093,17,EyesClosed
-18915.78959414835,-2887.532459203298,7083.670149287003,2732.031373027727,22530.64781792734,12636.335210363295,8372.98582470248,11729.949620956138,0.0,0.0,0.0,2019-03-17T21:28:57.709028,17,EyesClosed
-18903.339672486745,-2881.273970755812,7001.549840158205,2505.3846842509133,22545.735245434673,12254.366249366552,8363.374574586698,11555.315441526824,0.0,0.0,0.0,2019-03-17T21:28:57.709557,17,EyesClosed
-18779.04162157078,-2757.0876785621263,7070.057936913721,2459.7647738176315,22690.35103206051,11872.956081981192,8483.559904522885,11523.33009521128,0.0,0.0,0.0,2019-03-17T21:28:57.715152,17,EyesClosed
-18776.739391891886,-2742.4249341994446,7162.102420580676,2680.667064269431,22695.022546651668,12210.93680988989,8506.40338735621,11696.913742651193,0.0,0.0,0.0,2019-03-17T21:28:57.722238,17,EyesClosed
-18907.07241381078,-2879.1058515436475,7100.3892541395735,2747.454076701889,22543.142443077857,12634.524719062414,8382.440612607075,11747.741609542563,0.016,1.012,0.148,2019-03-17T21:28:57.722955,17,EyesClosed
-18921.735158173462,-2902.8657558996388,7008.7023983839035,2546.3777835819465,22525.193992280245,12366.281433854276,8350.432914547077,11591.01117742195,0.0,0.0,0.0,2019-03-17T21:28:57.730205,17,EyesClosed
-18796.878313646117,-2786.7260917098633,7054.232901839364,2453.618044092422,22672.804912663094,11909.523535910075,8467.489000259518,11523.352446955734,0.0,0.0,0.0,2019-03-17T21:28:57.730741,17,EyesClosed
-18758.72388586091,-2742.0226027992494,7154.659289677059,2647.9217586424065,22714.110936416502,12127.900079238425,8519.836785773849,11678.69707092012,0.0,0.0,0.0,2019-03-17T21:28:57.737134,17,EyesClosed
-18878.97627103046,-2851.7696680748068,7121.891632305579,2767.6824054339418,22574.010202170637,12614.676369986102,8411.542583887885,11771.99325227657,0.0,0.0,0.0,2019-03-17T21:28:57.737837,17,EyesClosed
-18934.341542046255,-2915.7180089614403,7013.820947864169,2590.388368414446,22513.302864230023,12461.075182089233,8343.83914993276,11629.299715673891,0.0,0.0,0.0,2019-03-17T21:28:57.744953,17,EyesClosed
-18832.998732685894,-2823.4276561054776,7018.805386877702,2436.206035161738,22636.885659323416,11946.292155539055,8437.269441755943,11511.841298561252,0.0,0.0,0.0,2019-03-17T21:28:57.745491,17,EyesClosed
-18752.13012124659,-2742.9837278108275,7139.728324380913,2608.3144674676023,22720.34707311953,12044.751589864683,8523.16719569769,11644.54360539241,0.0,0.0,0.0,2019-03-17T21:28:57.753075,17,EyesClosed
-18847.97440147095,-2833.061257965715,7145.2939087502855,2784.3344550531456,22604.319167652033,12572.945663088043,8441.33745924681,11779.57049364692,0.0,0.0,0.0,2019-03-17T21:28:57.753979,17,EyesClosed
-18933.961562390516,-2918.8472531851835,7028.975430604867,2640.880959138985,22503.55750364751,12546.168273230585,8344.330888310777,11664.011974812982,0.0,0.0,0.0,2019-03-17T21:28:57.760139,17,EyesClosed
-18850.366038127668,-2830.535510842265,7007.137776272032,2446.9348725002856,22605.123830452423,12013.70501681626,8415.655304867661,11513.696493351043,0.02,1.024,0.148,2019-03-17T21:28:57.760717,17,EyesClosed
-18759.08151377219,-2737.2393294858134,7117.22011771442,2563.0521849456054,22715.362634105997,11969.157990116833,8519.568564840385,11605.763328762452,0.0,0.0,0.0,2019-03-17T21:28:57.768927,17,EyesClosed
-18843.59345955771,-2813.279964122768,7145.22685351692,2764.4861059768327,22621.507659138162,12489.260731847375,8458.928282133136,11764.684231839685,0.0,0.0,0.0,2019-03-17T21:28:57.769392,17,EyesClosed
-18947.014981152413,-2913.795758938284,7042.341773789141,2677.9625031903392,22504.585683892452,12608.887268172177,8351.639908747662,11694.656216461208,0.0,0.0,0.0,2019-03-17T21:28:57.775198,17,EyesClosed
-18871.5554918713,-2854.4518774094436,7004.902601826501,2469.10780299995,22590.438734345287,12115.96424769929,8406.245220451978,11532.337848226769,0.0,0.0,0.0,2019-03-17T21:28:57.782537,17,EyesClosed
-18763.328345218702,-2743.833094100129,7100.456309372939,2525.814178683064,22716.413166095397,11936.815015890004,8518.898012506725,11579.410622049645,0.0,0.0,0.0,2019-03-17T21:28:57.783110,17,EyesClosed
-18818.87243019014,-2791.151737112014,7150.703030908469,2742.201416754892,22650.90020309689,12414.516498388828,8481.81646845537,11747.361629886822,0.0,0.0,0.0,2019-03-17T21:28:57.790037,17,EyesClosed
-18926.69724544254,-2916.0309333838145,7065.453477555929,2718.5532711211767,22517.527343932074,12665.146608966186,8364.939196698571,11722.84176621935,0.0,0.0,0.0,2019-03-17T21:28:57.790721,17,EyesClosed
-18890.82269559177,-2889.2311917819015,6989.368139430063,2486.8103846085532,22555.346495550453,12215.697731458871,8376.405641604142,11540.742104141964,0.0,0.0,0.0,2019-03-17T21:28:57.797064,17,EyesClosed
-18766.546996420264,-2756.886512862028,7076.11525966111,2494.789957379098,22704.142058389432,11918.2630679921,8504.68230303315,11549.548691457354,0.0,0.0,0.0,2019-03-17T21:28:57.797582,17,EyesClosed
-18796.744203179383,-2768.0847368341374,7150.1665890415425,2716.452207142378,22675.53182548664,12329.311648525198,8500.033140186446,11726.79802498794,0.02,1.022,0.14400000000000002,2019-03-17T21:28:57.805179,17,EyesClosed
-18921.08695758426,-2899.2671250423346,7071.622559025594,2739.832131842629,22526.13276554737,12685.017309786954,8372.002347946447,11745.819359519406,0.0,0.0,0.0,2019-03-17T21:28:57.805854,17,EyesClosed
-18903.74200388694,-2899.177718064513,6983.176706215943,2513.923050632841,22529.59728593794,12322.58377344415,8354.009193659926,11570.782848689896,0.0,0.0,0.0,2019-03-17T21:28:57.813139,17,EyesClosed
-18772.984298823394,-2769.6940624349195,7049.628442481571,2458.4460208947685,22680.96329938928,11924.342742483943,8480.542419021418,11533.164862771615,0.0,0.0,0.0,2019-03-17T21:28:57.813643,17,EyesClosed
-18770.01151681084,-2755.3889459835227,7143.349306982674,2673.514506043733,22690.619252993973,12233.04268515619,8507.833899001349,11700.244152575035,0.0,0.0,0.0,2019-03-17T21:28:57.819921,17,EyesClosed
-18904.971349831983,-2881.3857294780887,7088.364015622618,2756.7076989063858,22538.850908142438,12674.377879426227,8385.525153341909,11759.923310270706,0.0,0.0,0.0,2019-03-17T21:28:57.820533,17,EyesClosed
-18921.846916895738,-2903.2457355553793,6992.139755742522,2564.706214035298,22510.017157795093,12439.997487067878,8346.186083100567,11612.133575932214,0.0,0.0,0.0,2019-03-17T21:28:57.827925,17,EyesClosed
-18795.738374678895,-2787.2401818323356,7022.314610757186,2447.426610878302,22646.362798972466,11959.524388256597,8456.067258842857,11523.061874277815,0.0,0.0,0.0,2019-03-17T21:28:57.828532,17,EyesClosed
-18752.13012124659,-2734.0430300287044,7125.914946307534,2635.784761403175,22695.469581540776,12144.797998046637,8515.344085138331,11668.21410277058,0.0,0.0,0.0,2019-03-17T21:28:57.835040,17,EyesClosed
-18871.73430582694,-2843.7453918153515,7096.656512815537,2767.280074033746,22556.32997230649,12641.207890654552,8406.736958829995,11766.964109774126,0.0,0.0,0.0,2019-03-17T21:28:57.842609,17,EyesClosed
-18923.70211168553,-2908.0066571243597,6993.48086040984,2603.710008109809,22493.4098116648,12530.007961989399,8336.261908562412,11641.30260244639,0.014,1.03,0.14,2019-03-17T21:28:57.843293,17,EyesClosed
-18804.187334083002,-2799.846565705129,7005.260229737786,2446.1525614443494,22625.016883017648,12016.230763939711,8436.420075466642,11524.537089411866,0.0,0.0,0.0,2019-03-17T21:28:57.849295,17,EyesClosed
-18737.735597817373,-2728.857425315073,7115.364922924629,2595.9316010393622,22707.65128226892,12070.523151221652,8521.356704396809,11638.285116944924,0.0,0.0,0.0,2019-03-17T21:28:57.849864,17,EyesClosed
-18842.475872334944,-2819.829025248173,7127.367809697129,2781.0711003626707,22596.384298370398,12603.858125669734,8444.220834281545,11781.224522736613,0.0,0.0,0.0,2019-03-17T21:28:57.857385,17,EyesClosed
-18923.255076796424,-2904.0056948668594,7020.213546778387,2658.963520403328,22493.2086459647,12623.013570667932,8345.157902855624,11677.847704630818,0.0,0.0,0.0,2019-03-17T21:28:57.858150,17,EyesClosed
-18836.530308309833,-2820.2313566483685,6995.4925174108175,2462.3352244299917,22589.52231282262,12096.719395723272,8408.480394897508,11517.719807352998,0.0,0.0,0.0,2019-03-17T21:28:57.865471,17,EyesClosed
-18741.133062974583,-2724.1412072350035,7102.244448929364,2566.4720018472676,22701.772773477172,12017.817737796038,8512.192489170133,11595.481526313011,0.0,0.0,0.0,2019-03-17T21:28:57.865996,17,EyesClosed
-18821.82286045824,-2798.348998826623,7129.938260309489,2772.0409956027265,22610.309435166055,12525.828185776256,8450.144046562202,11749.730914799085,0.0,0.0,0.0,2019-03-17T21:28:57.872260,17,EyesClosed
-18923.5680012188,-2902.9775146219154,7034.049276596222,2707.332695404613,22492.247520953122,12678.825876572833,8340.12876035318,11689.60472221431,0.0,0.0,0.0,2019-03-17T21:28:57.873135,17,EyesClosed
-18861.564262099775,-2851.926130285994,6984.674273094449,2493.359445733958,22565.717704977716,12186.931036344891,8382.37355737371,11518.5691736423,0.0,0.0,0.0,2019-03-17T21:28:57.880110,17,EyesClosed
-18745.13402523208,-2733.774809095241,7081.725547519392,2539.068763145061,22700.811648465595,11971.951958173748,8502.06714893188,11553.57200545931,0.018000000000000002,1.038,0.14200000000000002,2019-03-17T21:28:57.880707,17,EyesClosed
-18799.091136347193,-2780.1546788400033,7133.2016149999645,2751.5667976816653,22639.76903435815,12426.251164227864,8467.265482814966,11719.667818506698,0.0,0.0,0.0,2019-03-17T21:28:57.888093,17,EyesClosed
-18927.03252160937,-2916.9473549064824,7037.558500475705,2732.2325387278247,22498.148381489325,12699.903571594188,8342.02865863188,11700.89235316424,0.0,0.0,0.0,2019-03-17T21:28:57.888510,17,EyesClosed
-18908.100594055726,-2899.311828531245,6955.728764024826,2499.103844058972,22527.675035914785,12271.37592689704,8347.884815679172,11520.625534132187,0.0,0.0,0.0,2019-03-17T21:28:57.895339,17,EyesClosed
-18774.95125233546,-2773.9408938814277,7039.4583987544065,2492.174803277827,22679.398677277408,11951.097780596947,8481.190619610623,11523.195984744547,0.0,0.0,0.0,2019-03-17T21:28:57.895874,17,EyesClosed
-18785.99301409638,-2784.4909172643324,7121.086969505188,2713.0770937296265,22662.925441613846,12333.111445082599,8487.404404569197,11696.64552171773,0.0,0.0,0.0,2019-03-17T21:28:57.901949,17,EyesClosed
-18910.55928594581,-2909.660686214052,7045.359259290607,2747.2305592573357,22509.54777116153,12706.206763530585,8359.798295473849,11721.992399930048,0.0,0.0,0.0,2019-03-17T21:28:57.909683,17,EyesClosed
-18913.241495280447,-2910.912383903549,6955.974633213835,2532.519702019656,22509.30190197252,12377.144381659555,8343.70503946603,11557.371802016713,0.0,0.0,0.0,2019-03-17T21:28:57.910490,17,EyesClosed
-18793.324386277724,-2789.2741905777684,7020.973506089867,2466.358538431947,22667.552252716097,11956.238681821667,8474.798020696404,11509.382606671168,0.0,0.0,0.0,2019-03-17T21:28:57.917713,17,EyesClosed
-18773.27487150131,-2767.280074033746,7124.216213728931,2676.2637706117357,22696.743630974728,12235.054342157167,8517.422797372676,11673.64557667322,0.0,0.0,0.0,2019-03-17T21:28:57.918677,17,EyesClosed
-18900.724518385472,-2883.442089967977,7075.578817794182,2768.1741438119584,22550.74203619266,12687.99009179951,8401.417243649632,11742.779522273484,0.02,1.032,0.148,2019-03-17T21:28:57.924719,17,EyesClosed
-18944.533937517874,-2936.974517938437,6956.064040191655,2558.6712430323655,22495.64498611033,12457.945937865488,8334.764341683906,11573.62152023572,0.0,0.0,0.0,2019-03-17T21:28:57.925230,17,EyesClosed
-18821.375825569132,-2825.059333450715,6995.4925174108175,2445.303195155048,22642.741816370704,11978.433964065787,8452.803904152383,11485.220370914982,0.0,0.0,0.0,2019-03-17T21:28:57.933955,17,EyesClosed
-18765.608223153144,-2763.413222242978,7115.096701991165,2638.2434532932584,22708.701814258315,12144.373314901986,8528.30809692241,11635.893480288207,0.0,0.0,0.0,2019-03-17T21:28:57.934602,17,EyesClosed
-18876.472875651467,-2869.7181188724185,7093.21434416942,2787.5531062547097,22573.94314693727,12654.753047794467,8426.227679995023,11747.026353719993,0.0,0.0,0.0,2019-03-17T21:28:57.941996,17,EyesClosed
-18939.907126415626,-2937.4662563164543,6974.034842733722,2626.3076217541247,22493.298052942522,12568.363555474705,8340.218167331,11614.72637828903,0.0,0.0,0.0,2019-03-17T21:28:57.942757,17,EyesClosed
-18843.01231420187,-2843.5218743707987,6967.195208930399,2446.8678172669192,22607.1354874534,12038.627211883928,8423.791339849395,11477.911350478096,0.0,0.0,0.0,2019-03-17T21:28:57.948293,17,EyesClosed
-18762.411923696032,-2757.490009962322,7082.68667253097,2588.9578567693065,22702.86800895548,12064.935215107826,8521.669628819183,11594.162773390148,0.0,0.0,0.0,2019-03-17T21:28:57.948829,17,EyesClosed
-18852.310639895277,-2846.8522842946395,7097.260009915831,2775.729033437852,22596.51840883713,12597.487878499971,8451.462799485063,11746.445208364155,0.0,0.0,0.0,2019-03-17T21:28:57.955362,17,EyesClosed
-18950.479501542988,-2952.1290006791355,6977.320549168653,2652.682680211387,22480.334041158443,12636.938707463589,8342.386286543166,11650.086838017325,0.0,0.0,0.0,2019-03-17T21:28:57.956129,17,EyesClosed
-18855.43988411902,-2873.2273427519017,6950.789028500203,2456.0990877269614,22581.94507145227,12117.126538410967,8413.576592633319,11503.101766479227,0.01,1.034,0.146,2019-03-17T21:28:57.962178,17,EyesClosed
-18752.13012124659,-2763.703794920897,7064.44764905544,2557.3748418539576,22705.997253179223,12013.302685416065,8531.862024290804,11586.607883764254,0.0,0.0,0.0,2019-03-17T21:28:57.970218,17,EyesClosed
-18837.290267621313,-2828.0321154632707,7097.371768638107,2766.7212804223636,22618.914856781346,12515.814604260278,8477.055546886391,11751.250833422046,0.0,0.0,0.0,2019-03-17T21:28:57.971003,17,EyesClosed
-18950.971239921004,-2943.702393019485,6996.453642422395,2708.003247738272,22487.68776508424,12697.422527959649,8358.859522206727,11702.881658420762,0.0,0.0,0.0,2019-03-17T21:28:57.978156,17,EyesClosed
-18893.571960159774,-2897.85896514165,6941.2001301288765,2487.7268061312207,22550.60792572593,12219.497528016273,8396.14223195818,11536.204700017537,0.0,0.0,0.0,2019-03-17T21:28:57.979038,17,EyesClosed
-18773.923072090518,-2777.450117760911,7041.58181447766,2525.0542193715837,22690.663956482884,11981.339690844976,8521.468463119087,11570.268758567425,0.0,0.0,0.0,2019-03-17T21:28:57.984559,17,EyesClosed
-18809.641159730098,-2805.9709436858825,7111.632181600593,2750.359803481079,22647.525089684143,12432.308486975251,8505.308151877898,11749.015658976516,0.0,0.0,0.0,2019-03-17T21:28:57.985434,17,EyesClosed
-18935.302667057833,-2934.6499365150853,7021.53229970125,2738.625137642043,22496.11437274389,12730.011371375487,8375.019833447914,11739.60557456083,0.0,0.0,0.0,2019-03-17T21:28:57.992713,17,EyesClosed
-18916.773070904383,-2924.05520964327,6933.578185269616,2501.49548071569,22515.918018331293,12317.800500130714,8371.80118224635,11558.288223539379,0.0,0.0,0.0,2019-03-17T21:28:57.993366,17,EyesClosed
-18778.080496559203,-2786.9719608988717,7018.537165944239,2482.1165182729387,22672.648450451907,11971.124943628902,8504.324675121865,11548.38640074568,0.0,0.0,0.0,2019-03-17T21:28:58.000774,17,EyesClosed
-18782.662604172543,-2786.3461120541233,7105.306637919741,2703.644657569487,22662.67957242484,12333.267907293786,8516.97576248357,11720.494833051544,0.002,1.03,0.14200000000000002,2019-03-17T21:28:58.001688,17,EyesClosed
-18908.79349813384,-2909.4595205139544,7039.525453987772,2756.7300506508413,22509.234846739157,12734.705237711101,8388.363824887732,11756.056458479938,0.0,0.0,0.0,2019-03-17T21:28:58.007873,17,EyesClosed
-18914.582599947764,-2915.7180089614403,6942.742400496292,2544.0979056475053,22495.220302965678,12428.687504373493,8355.529112282886,11589.021872165427,0.0,0.0,0.0,2019-03-17T21:28:58.008764,17,EyesClosed
-18782.461438472445,-2787.843678932629,6995.760738344281,2461.195285462771,22643.72529312674,11983.060775168035,8478.396651553709,11531.175557515093,0.0,0.0,0.0,2019-03-17T21:28:58.015624,17,EyesClosed
-18752.71126660243,-2754.226655271847,7108.145309465565,2671.7487182317636,22679.331622044043,12238.60826952556,8526.11762596579,11696.287893806446,0.0,0.0,0.0,2019-03-17T21:28:58.016309,17,EyesClosed
-18879.60211987521,-2870.7462991173625,7073.20953288192,2787.9777893993605,22535.386387751867,12717.270877035962,8410.08972049829,11784.398470449267,0.0,0.0,0.0,2019-03-17T21:28:58.022497,17,EyesClosed
-18935.772053691395,-2936.929814449527,6954.834694246614,2588.84609804703,22469.672259053263,12520.687284551535,8331.277469548879,11624.494090615999,0.0,0.0,0.0,2019-03-17T21:28:58.030317,17,EyesClosed
-18812.47983127592,-2816.2303943908687,6981.14269747051,2455.696756326766,22608.56599909854,12020.008208752657,8439.079933056824,11524.715903367509,0.0,0.0,0.0,2019-03-17T21:28:58.031102,17,EyesClosed
-18753.09124625817,-2762.697966420408,7094.197820925453,2632.5214067127,22680.225691822256,12151.88350103897,8516.439320616642,11668.951710337606,0.0,0.0,0.0,2019-03-17T21:28:58.037037,17,EyesClosed
-18863.173587700556,-2863.1690577470135,7085.4806405878835,2796.8514319481174,22550.85379491494,12675.473114904538,8420.416226436642,11796.714281644141,0.0,0.0,0.0,2019-03-17T21:28:58.037984,17,EyesClosed
-18934.430949024078,-2931.408933569066,6977.946398013401,2648.748773187253,22464.129026428345,12628.73561724849,8333.780864927872,11681.200466299113,-0.002,1.036,0.132,2019-03-17T21:28:58.045065,17,EyesClosed
-18829.131880895126,-2830.870787009095,6977.946398013401,2467.654939610355,22581.65449877435,12104.386044071442,8420.751502603473,11547.738200156475,0.0,0.0,0.0,2019-03-17T21:28:58.045737,17,EyesClosed
-18746.13985373257,-2740.569739409654,7095.985960481878,2598.1444237404376,22682.662031967884,12096.96526491228,8518.87566076227,11657.73113462104,0.0,0.0,0.0,2019-03-17T21:28:58.052972,17,EyesClosed
-18835.792700742808,-2825.1263886840807,7118.047132259266,2795.8456034476285,22579.1287516509,12624.019399168421,8449.67465992864,11814.908601630761,0.0,0.0,0.0,2019-03-17T21:28:58.053612,17,EyesClosed
-18931.301704800335,-2922.1776631090243,7013.508023441795,2700.291895901191,22466.833587507437,12708.531344953937,8343.70503946603,11735.783426258973,0.0,0.0,0.0,2019-03-17T21:28:58.061103,17,EyesClosed
-18851.617735817163,-2845.9358627719716,6979.868648036558,2492.755948633665,22557.022876384603,12193.70361491485,8399.09266222628,11572.570988246322,0.0,0.0,0.0,2019-03-17T21:28:58.061803,17,EyesClosed
-18742.60827810863,-2738.8263033421404,7079.289207373764,2565.0191384576724,22676.939985387326,12040.86238632946,8504.078805932857,11626.103416216782,0.0,0.0,0.0,2019-03-17T21:28:58.067749,17,EyesClosed
-18815.162040610558,-2806.060350663704,7120.528175893805,2774.8796671485507,22595.311414636544,12524.91176425359,8450.971061107048,11784.75609836055,0.0,0.0,0.0,2019-03-17T21:28:58.068658,17,EyesClosed
-18934.40859727962,-2921.596517753186,7023.6110119355935,2730.936137549417,22460.95507871569,12738.99677264652,8331.053952104325,11744.947641485649,0.0,0.0,0.0,2019-03-17T21:28:58.075614,17,EyesClosed
-18885.100649011212,-2870.8804095840947,6963.7977437731915,2506.9269546183295,22519.807221866515,12279.131982223033,8358.904225695638,11570.849903923263,0.0,0.0,0.0,2019-03-17T21:28:58.076269,17,EyesClosed
-18752.800673580252,-2740.927367320939,7060.334928075663,2528.205815339782,22668.602784705494,12009.011150480646,8487.762032480483,11588.016043664938,0.002,1.032,0.138,2019-03-17T21:28:58.082711,17,EyesClosed
-18785.322461762724,-2773.605617714598,7134.02862954481,2755.4336494724334,22635.365740700454,12438.164644022543,8478.575465509351,11761.666746338218,0.0,0.0,0.0,2019-03-17T21:28:58.089857,17,EyesClosed
-18906.200695777025,-2892.7851191502955,7061.16194262051,2776.64545496052,22494.21447446519,12777.218255665095,8356.914920439116,11771.121534242813,0.0,0.0,0.0,2019-03-17T21:28:58.090537,17,EyesClosed
-18899.204599762514,-2885.7443196468735,6967.686947308415,2542.1086003909827,22500.763535590595,12386.97914921989,8339.838187675261,11585.333834330302,0.0,0.0,0.0,2019-03-17T21:28:58.097442,17,EyesClosed
-18778.2816622593,-2761.5356757087325,7033.959869618401,2493.5829631785114,22648.754435629184,11999.913990487337,8460.023517611447,11548.654621679143,0.0,0.0,0.0,2019-03-17T21:28:58.098230,17,EyesClosed
-18778.751048892864,-2773.471507247866,7123.947992795467,2710.3948843949897,22649.29087749611,12332.932631126956,8476.899084675204,11718.505527795021,0.0,0.0,0.0,2019-03-17T21:28:58.105410,17,EyesClosed
-18902.825582364272,-2902.0163896103372,7066.30284384523,2784.0662341196817,22501.03175652406,12761.415572335192,8355.12678088269,11773.513170899532,0.0,0.0,0.0,2019-03-17T21:28:58.106173,17,EyesClosed
-18923.635056452164,-2921.350648564178,6967.977519986334,2577.737281052742,22480.579910347453,12489.32778708074,8319.78867289885,11615.128709689227,0.0,0.0,0.0,2019-03-17T21:28:58.114525,17,EyesClosed
-18797.52651423532,-2793.968056913383,7011.921049585468,2475.0533670250616,22625.709787095762,12024.232688454711,8433.983735321013,11540.228014019493,0.0,0.0,0.0,2019-03-17T21:28:58.114934,17,EyesClosed
-18770.212682510937,-2761.5580274531876,7109.9781525109,2667.1219071295154,22663.573642203053,12238.831786970113,8482.844648700315,11690.163515825692,0.0,0.0,0.0,2019-03-17T21:28:58.120738,17,EyesClosed
-18891.82852409226,-2876.825973609206,7075.511762560816,2794.7950714582294,22523.383500979366,12732.559470243392,8374.595150303263,11787.19243850618,-0.004,1.026,0.134,2019-03-17T21:28:58.121014,17,EyesClosed
-18938.56602174831,-2928.6596690010633,6964.892979251502,2614.885880337463,22460.30687812649,12583.875666126689,8303.851879102216,11650.980907795538,0.0,0.0,0.0,2019-03-17T21:28:58.127673,17,EyesClosed
-18819.67709299053,-2813.257612378313,6977.678177079938,2462.6481488523664,22591.355155867954,12071.663090188873,8404.792357062383,11540.317420997313,0.0,0.0,0.0,2019-03-17T21:28:58.128041,17,EyesClosed
-18747.480958399887,-2736.9487568078944,7089.839230756668,2626.5311391986775,22668.82630215005,12164.400477933941,8487.851439458304,11672.505637706,0.0,0.0,0.0,2019-03-17T21:28:58.136082,17,EyesClosed
-18856.35630564169,-2835.98933648936,7085.905323732534,2797.276115092768,22543.567126222508,12689.442955189104,8396.18693544709,11804.71620615914,0.0,0.0,0.0,2019-03-17T21:28:58.136987,17,EyesClosed
-18935.436777524566,-2914.376904294122,6974.280711922731,2660.863418682029,22449.935668699225,12670.063992746353,8303.762472124396,11696.623169973276,0.0,0.0,0.0,2019-03-17T21:28:58.142353,17,EyesClosed
-18834.831575731227,-2820.8125020042066,6961.182589671921,2471.231218723204,22562.90138517635,12137.712495054306,8384.385214374688,11551.023906591405,0.0,0.0,0.0,2019-03-17T21:28:58.143117,17,EyesClosed
-18731.633571581075,-2719.760265321763,7080.295035874252,2591.8635835484965,22680.091581355522,12090.371500297964,8496.054529673402,11650.31035546188,0.0,0.0,0.0,2019-03-17T21:28:58.149807,17,EyesClosed
-18816.525497022332,-2798.058426148704,7100.3892541395735,2790.8611644340954,22578.815827228525,12601.667654713114,8428.976944563025,11805.3867584928,0.0,0.0,0.0,2019-03-17T21:28:58.157399,17,EyesClosed
-18930.429986766576,-2914.153386849569,6984.875438794546,2692.8934684864844,22447.02994192004,12709.872449621254,8304.701245391518,11721.277144107478,0.0,0.0,0.0,2019-03-17T21:28:58.158121,17,EyesClosed
-18867.465122635975,-2859.2351507228796,6943.189435385399,2475.7239193587207,22525.88689635836,12205.527687731706,8353.830379704283,11554.041392092871,-0.012,1.03,0.136,2019-03-17T21:28:58.165516,17,EyesClosed
-18756.958098048937,-2748.482256946833,7047.907358158513,2538.7334869782317,22661.29376426861,12023.182156465311,8475.24505558551,11602.902305472173,0.0,0.0,0.0,2019-03-17T21:28:58.166457,17,EyesClosed
-18812.90451442057,-2798.259591848802,7097.21530642692,2760.2392745303246,22595.937263481293,12501.442432575517,8438.029401067424,11770.696851098162,0.0,0.0,0.0,2019-03-17T21:28:58.172215,17,EyesClosed
-18935.816757180306,-2923.1387881206024,6999.180555245943,2729.550329393188,22455.098921668403,12754.151255387218,8313.016094328892,11740.3208303834,0.0,0.0,0.0,2019-03-17T21:28:58.172856,17,EyesClosed
-18901.193905019034,-2891.1310900606027,6930.314830579142,2497.271001013637,22496.851980310916,12311.854936105603,8328.863481147704,11562.400944519157,0.0,0.0,0.0,2019-03-17T21:28:58.180933,17,EyesClosed
-18768.223377254413,-2753.891379105017,7021.219375278875,2501.584887693511,22647.703903639784,12010.866345270437,8457.833046654827,11571.47575276801,0.0,0.0,0.0,2019-03-17T21:28:58.181847,17,EyesClosed
-18788.697575175476,-2771.2363328023357,7095.74009129287,2727.605727625576,22621.820583560537,12420.17148973602,8452.245110541,11745.729952541586,0.0,0.0,0.0,2019-03-17T21:28:58.188264,17,EyesClosed
-18916.37073950419,-2902.351665777167,7015.206756020398,2749.9127685919725,22467.884119496837,12772.837313751856,8320.615687443697,11758.09046722537,0.0,0.0,0.0,2019-03-17T21:28:58.188908,17,EyesClosed
-18909.486402211955,-2897.5236889748203,6926.649144488471,2525.322440305047,22476.109561456393,12414.874126300112,8308.031655315359,11589.334796587802,0.0,0.0,0.0,2019-03-17T21:28:58.195395,17,EyesClosed
-18774.10188604616,-2761.6027309420983,6990.418671419463,2468.2584367106483,22625.150993484378,12016.230763939711,8432.553223675874,11556.969470616517,0.0,0.0,0.0,2019-03-17T21:28:58.196025,17,EyesClosed
-18768.044563298772,-2742.3578789660787,7085.570047565705,2681.29291311418,22635.790423845105,12327.34469501313,8463.465686257565,11725.65808602072,-0.008,1.042,0.13,2019-03-17T21:28:58.202909,17,EyesClosed
-18911.922742357583,-2876.401290464555,7039.950137132423,2776.4889927493327,22494.348584931922,12776.234778909062,8351.706963981029,11793.875610098316,0.0,0.0,0.0,2019-03-17T21:28:58.203569,17,EyesClosed
-18949.451321298042,-2922.8482154426833,6935.65689750396,2574.8315542735522,22459.54691881501,12534.366552158184,8304.813004113794,11638.039247755916,0.0,0.0,0.0,2019-03-17T21:28:58.210031,17,EyesClosed
-18821.755805224875,-2802.84169946214,6972.626682833038,2458.3789656614026,22602.106344950957,12055.614537669962,8416.147043245679,11553.594357203765,0.0,0.0,0.0,2019-03-17T21:28:58.217884,17,EyesClosed
-18777.275833758813,-2755.0983733056037,7077.277550372786,2644.3454795295575,22649.33558098502,12235.791949724193,8470.171209594157,11694.186829827648,0.0,0.0,0.0,2019-03-17T21:28:58.218754,17,EyesClosed
-18892.633186892654,-2861.6491391240525,7053.450590783428,2784.9826556423495,22515.02394855308,12739.354400557804,8366.213246132524,11795.417880465733,0.0,0.0,0.0,2019-03-17T21:28:58.225001,17,EyesClosed
-18958.548481291353,-2930.2913463463005,6941.960089440357,2612.874223336485,22446.15822388628,12619.459643299539,8290.329073706755,11654.557186908387,0.0,0.0,0.0,2019-03-17T21:28:58.225696,17,EyesClosed
-18843.01231420187,-2841.6443278365527,6948.352688354575,2449.594730090467,22574.568995782018,12097.412299801386,8385.078118452802,11525.766435356909,0.0,0.0,0.0,2019-03-17T21:28:58.232586,17,EyesClosed
-18758.455664927445,-2760.194571041414,7065.319367089197,2604.5593743991108,22665.29472652611,12159.706611598327,8477.703747475594,11646.063524015372,0.0,0.0,0.0,2019-03-17T21:28:58.233230,17,EyesClosed
-18861.720724310962,-2854.7424500873626,7069.722660746892,2783.909771908495,22546.56225997952,12685.598455142792,8394.935237757592,11780.017528536026,0.0,0.0,0.0,2019-03-17T21:28:58.240639,17,EyesClosed
-18951.597088765753,-2946.9433959655044,6957.829828003625,2652.995604633761,22442.783110473527,12704.46332746307,8295.201753998012,11673.824390628863,-0.004,1.028,0.134,2019-03-17T21:28:58.241282,17,EyesClosed
-18859.977288243448,-2866.968854304416,6936.282746348709,2451.2264074357045,22550.093835603457,12176.291605984165,8368.336661855777,11519.418539931601,0.0,0.0,0.0,2019-03-17T21:28:58.248743,17,EyesClosed
-18750.341981690166,-2760.149867552503,7051.2601198268085,2556.659586031388,22670.43562775083,12100.295674836121,8478.86603818727,11604.288113628401,0.0,0.0,0.0,2019-03-17T21:28:58.249623,17,EyesClosed
-18832.35053209669,-2833.284775410268,7080.6079602966265,2762.027414086749,22578.927585950805,12607.523811760404,8414.671828111628,11759.431571892688,0.0,0.0,0.0,2019-03-17T21:28:58.255293,17,EyesClosed
-18950.74772247645,-2951.6149105566637,6968.312796153164,2677.8283927236075,22444.325380840946,12748.988002418042,8287.31158820529,11684.463820989587,0.0,0.0,0.0,2019-03-17T21:28:58.256068,17,EyesClosed
-18888.565169401787,-2898.7083314309516,6915.361513538542,2454.400355148358,22515.538038675553,12252.399295854486,8325.30955377931,11506.968618269995,0.0,0.0,0.0,2019-03-17T21:28:58.263284,17,EyesClosed
-18770.503255188854,-2783.2392195748353,7020.235898522842,2504.6470766838884,22656.711656655272,12043.075209030534,8451.462799485063,11548.006421089938,0.0,0.0,0.0,2019-03-17T21:28:58.263923,17,EyesClosed
-18814.938523166005,-2817.571499058187,7084.631274298582,2737.2169777413583,22604.967368241236,12515.591086815726,8429.602793407774,11728.541461055454,0.0,0.0,0.0,2019-03-17T21:28:58.270241,17,EyesClosed
-18939.393036293153,-2944.44000058651,6990.753947586292,2721.7942740671965,22456.417674591266,12791.456316883126,8302.3096087348,11708.804870701417,0.0,0.0,0.0,2019-03-17T21:28:58.278063,17,EyesClosed
-18912.861515624707,-2930.4254568130323,6913.014580370735,2491.9512858332737,22488.715945329186,12361.140532629553,8310.93738209455,11525.431159190079,0.0,0.0,0.0,2019-03-17T21:28:58.278926,17,EyesClosed
-18777.00761282535,-2797.343170326134,7000.901639569001,2485.335169474503,22645.222860005244,12034.46978741524,8445.24901452649,11528.113368524715,-0.002,1.038,0.14,2019-03-17T21:28:58.284717,17,EyesClosed
-18798.91232239155,-2810.865975721595,7077.165791650509,2706.751550048775,22624.36868242844,12419.679751358004,8447.372430249743,11704.669797977185,0.0,0.0,0.0,2019-03-17T21:28:58.285394,17,EyesClosed
-18928.150108832135,-2940.7519627513843,7003.427386692451,2749.286919747224,22471.01336372058,12807.840145568865,8321.420350244087,11734.688190780664,0.0,0.0,0.0,2019-03-17T21:28:58.292795,17,EyesClosed
-18931.011132122414,-2946.4516575874877,6904.073882588611,2527.043524628106,22463.01143920558,12474.240359573409,8294.419442942077,11562.088020096782,0.0,0.0,0.0,2019-03-17T21:28:58.293441,17,EyesClosed
-18795.872485145628,-2810.4412925769443,6960.892016994002,2453.014546992129,22613.751603812172,12045.824473598537,8417.979886291014,11511.058987505316,0.0,0.0,0.0,2019-03-17T21:28:58.300773,17,EyesClosed
-18772.91724359003,-2789.810632444696,7062.368936821096,2668.0159769077277,22638.874964579936,12331.05508459271,8461.05169785639,11679.769954653973,0.0,0.0,0.0,2019-03-17T21:28:58.301413,17,EyesClosed
-18906.93830334405,-2922.4011805535774,7017.978372332856,2774.745556681819,22492.113410486392,12801.693415843656,8345.135551111169,11755.967051502115,0.0,0.0,0.0,2019-03-17T21:28:58.307325,17,EyesClosed
-18958.213205124524,-2971.6420735886186,6908.633638457494,2575.390347884935,22444.97358143015,12583.987424848965,8287.512753905386,11595.749747246475,0.0,0.0,0.0,2019-03-17T21:28:58.308063,17,EyesClosed
-18828.3942733281,-2839.699726068941,6941.982441184812,2450.2876341685815,22591.243397145678,12093.59015149953,8405.37350241822,11502.878249034673,0.0,0.0,0.0,2019-03-17T21:28:58.315558,17,EyesClosed
-18765.161188264035,-2781.249914318313,7058.747954219336,2635.80711314763,22659.48327296773,12253.159255165965,8481.458840544086,11650.466817673067,0.0,0.0,0.0,2019-03-17T21:28:58.316291,17,EyesClosed
-18887.849913579215,-2897.9483721194715,7035.457436496907,2774.9467223819165,22522.04239631205,12760.610909534802,8376.115068926223,11757.777542802995,0.0,1.034,0.136,2019-03-17T21:28:58.323647,17,EyesClosed
-18948.669010242105,-2965.6741578190517,6919.0719031181225,2604.4699674212898,22439.519755783054,12669.639309601702,8289.16678299508,11620.58253533632,0.0,0.0,0.0,2019-03-17T21:28:58.324369,17,EyesClosed
-18836.954991454484,-2863.325519958201,6917.887260661992,2426.371267601403,22561.89555667586,12134.292678152642,8378.66316779413,11483.4098796141,0.0,0.0,0.0,2019-03-17T21:28:58.330622,17,EyesClosed
-18758.790941094274,-2780.4676032623775,7031.3000120282195,2567.74605128122,22655.1470345434,12150.274175438188,8467.064317114868,11590.608846021754,0.0,0.0,0.0,2019-03-17T21:28:58.336928,17,EyesClosed
-18853.852910262696,-2869.5840084056867,7047.415619780496,2759.501666963299,22545.93641113477,12678.26708296145,8386.285112653388,11733.905879724727,0.0,0.0,0.0,2019-03-17T21:28:58.337880,17,EyesClosed
-18948.758417219928,-2967.439945631021,6935.27691784822,2650.8498371660517,22431.96486615716,12730.212537075584,8270.816000797273,11634.552375620888,0.0,0.0,0.0,2019-03-17T21:28:58.344990,17,EyesClosed
-18863.30769816729,-2891.980456349904,6905.817318656125,2450.332337657492,22524.724605646683,12215.854193670059,8333.490292249953,11480.727670279464,0.0,0.0,0.0,2019-03-17T21:28:58.345669,17,EyesClosed
-18763.887138830083,-2792.001103401316,7009.328247228653,2536.6324229994325,22642.67476113734,12095.892381178426,8441.76214239146,11548.56521470132,0.0,0.0,0.0,2019-03-17T21:28:58.353586,17,EyesClosed
-18835.993866442903,-2854.51893264281,7052.444762282939,2752.3938122265117,22565.00244915515,12603.031111124887,8393.884705768192,11717.454995805621,0.0,0.0,0.0,2019-03-17T21:28:58.354243,17,EyesClosed
-18947.03733289687,-2966.1658961970684,6955.61700530255,2696.9838377218057,22438.178651115733,12791.188095949663,8277.767393322873,11671.432753972143,0.0,0.0,0.0,2019-03-17T21:28:58.361565,17,EyesClosed
-18888.945149057527,-2918.400218296077,6899.22355404181,2473.5110966576453,22499.35537568991,12311.094976794122,8312.904335606616,11501.17951645607,-0.002,1.034,0.138,2019-03-17T21:28:58.362203,17,EyesClosed
-18773.654851157055,-2800.0700831496815,6993.52556389875,2507.5975069519886,22636.52803141213,12061.62715692844,8434.162549276656,11526.973429557494,0.0,0.0,0.0,2019-03-17T21:28:58.367678,17,EyesClosed
-18810.71404346395,-2825.2381474063573,7060.893721687045,2742.4696376883553,22596.339594881487,12517.043950205321,8420.527985158918,11711.2635625915,0.0,0.0,0.0,2019-03-17T21:28:58.368571,17,EyesClosed
-18936.196736836046,-2960.1979804275015,6966.636415319016,2738.893358575506,22441.509061039575,12823.575773665401,8289.077376017258,11705.273295077479,0.0,0.0,0.0,2019-03-17T21:28:58.375651,17,EyesClosed
-18897.863495095193,-2933.465294058954,6891.556905693639,2521.8579199144747,22470.96866023167,12426.586440394693,8298.3086464773,11541.502063453445,0.0,0.0,0.0,2019-03-17T21:28:58.376284,17,EyesClosed
-18778.14755179257,-2810.7318652548634,6961.070830949644,2486.4080532083576,22616.254999191166,12060.174293538845,8420.95266830357,11522.5701358998,0.0,0.0,0.0,2019-03-17T21:28:58.383771,17,EyesClosed
-18785.18835129599,-2807.9155454534944,7051.505989015817,2708.8749657720286,22612.388147400397,12427.256992728353,8436.174206277634,11700.087690363847,0.0,0.0,0.0,2019-03-17T21:28:58.384410,17,EyesClosed
-18920.818736650795,-2944.2388348864124,6992.363273187074,2771.124574080059,22465.425427606755,12841.613631440834,8315.11715830769,11744.344144385355,0.0,0.0,0.0,2019-03-17T21:28:58.389992,17,EyesClosed
-18935.70499845803,-2969.0492712318032,6891.333388249086,2554.692632519321,22446.940534942216,12536.445264392527,8281.63424511364,11572.012194634939,0.0,0.0,0.0,2019-03-17T21:28:58.390700,17,EyesClosed
-18782.684955916997,-2837.2633859233124,6942.51888305174,2472.549971646067,22598.597121071474,12085.945854895814,8404.56883961783,11508.957923526517,0.0,0.0,0.0,2019-03-17T21:28:58.397628,17,EyesClosed
-18707.69485326944,-2802.5958302731315,7049.069648870189,2676.6884537563865,22633.264676721654,12336.397151517529,8454.636747197717,11668.571730681864,-0.004,1.03,0.146,2019-03-17T21:28:58.405413,17,EyesClosed
-18811.16107835306,-2934.2029016259794,7007.71892162787,2780.892286407028,22485.49729412762,12812.198735737651,8338.899414408137,11744.969993230105,0.0,0.0,0.0,2019-03-17T21:28:58.406331,17,EyesClosed
-18837.267915876855,-2978.504059136398,6899.871754631014,2588.421414902379,22433.082453379924,12624.73465499099,8274.280521187846,11584.909151185651,0.0,0.0,0.0,2019-03-17T21:28:58.413364,17,EyesClosed
-18712.23225739387,-2865.5830461481864,6917.328467050608,2445.861988766431,22566.500016033653,12117.595925044528,8376.293882881866,11475.095030676726,0.0,0.0,0.0,2019-03-17T21:28:58.414215,17,EyesClosed
-18637.44332044641,-2801.3888360725446,7035.748009174826,2623.9606885863172,22642.808871604073,12245.537310306707,8453.876787886236,11613.072349199338,0.0,0.0,0.0,2019-03-17T21:28:58.421337,17,EyesClosed
-18736.88623152807,-2902.083444843703,7023.946288102423,2782.903943408006,22509.570122905985,12751.223176863574,8346.230786589478,11716.337408582856,0.0,0.0,0.0,2019-03-17T21:28:58.422203,17,EyesClosed
-18806.981302139917,-2984.8743063061606,6911.427606514408,2634.8236363915967,22424.38762478681,12717.89672588071,8262.97053849346,11610.367788120246,0.0,0.0,0.0,2019-03-17T21:28:58.428058,17,EyesClosed
-18705.124402657082,-2895.2661627848343,6908.454824501851,2451.8299045359977,22546.87518440189,12190.954350346847,8349.2706238354,11467.741306750931,0.0,0.0,0.0,2019-03-17T21:28:58.428700,17,EyesClosed
-18618.48904114831,-2807.8037867312178,7023.052218324211,2579.2571996757033,22650.497871696698,12168.93788205837,8446.076029071335,11561.372764274212,0.0,0.0,0.0,2019-03-17T21:28:58.436026,17,EyesClosed
-18703.135097400558,-2889.722930159918,7043.302898800719,2771.5269054802548,22547.478681502187,12689.308844722373,8373.924597969604,11707.799042200928,0.0,0.0,0.0,2019-03-17T21:28:58.436688,17,EyesClosed
-18801.460421259453,-2987.78003308535,6935.321621337131,2671.9498839318617,22429.506174267077,12779.498133599536,8261.383564637134,11623.465910371055,0.006,1.016,0.14400000000000002,2019-03-17T21:28:58.442671,17,EyesClosed
-18734.2710774268,-2919.406046796566,6897.815394141126,2463.3857564193913,22516.27564624258,12269.900711762992,8317.039408330847,11459.873492702663,0.0,0.0,0.0,2019-03-17T21:28:58.443444,17,EyesClosed
-18619.763090582263,-2810.4412925769443,7008.769453617269,2544.4778853032453,22652.218956019755,12117.975904700268,8441.784494135916,11525.095883023248,0.0,0.0,0.0,2019-03-17T21:28:58.450686,17,EyesClosed
-18678.771695944273,-2871.3274444732006,7061.318404831696,2766.676576933453,22588.85176048896,12612.441195540572,8408.078063497313,11699.148917096725,0.0,0.0,0.0,2019-03-17T21:28:58.451324,17,EyesClosed
-18796.699499690476,-2990.4175389310767,6965.943511240901,2723.716524090353,22451.72380825565,12838.909070361742,8287.3562916942,11666.582425425342,0.0,0.0,0.0,2019-03-17T21:28:58.457955,17,EyesClosed
-18753.828853825195,-2958.2533786598897,6897.860097630036,2495.326399246025,22498.014271022592,12377.099678170644,8308.679855904562,11490.025995972872,0.0,0.0,0.0,2019-03-17T21:28:58.465565,17,EyesClosed
-18630.737797109818,-2831.116656198103,6984.093127738611,2509.676219186332,22639.47846168023,12090.974997398258,8433.491996942998,11505.292237435848,0.0,0.0,0.0,2019-03-17T21:28:58.466354,17,EyesClosed
-18660.040934090728,-2845.868807538606,7059.977300164378,2742.0449545437045,22612.14227821139,12512.148918169609,8433.782569620917,11689.26944604748,0.0,0.0,0.0,2019-03-17T21:28:58.472606,17,EyesClosed
-18787.781153652806,-2963.1260589511467,6986.9988545178,2764.776678654752,22468.957003230695,12853.795332168977,8312.949039095527,11706.860268933806,0.0,0.0,0.0,2019-03-17T21:28:58.473453,17,EyesClosed
-18779.24278727088,-2962.053175217292,6899.894106375469,2537.16886486636,22474.34377364442,12487.047909146298,8297.481631932455,11532.583717415777,0.0,0.0,0.0,2019-03-17T21:28:58.480343,17,EyesClosed
-18645.22172751686,-2832.9494992434384,6961.875493750035,2485.5139834301453,22622.15585972737,12099.401605057908,8420.99737179248,11496.910333265107,0.0,0.0,0.0,2019-03-17T21:28:58.481304,17,EyesClosed
-18637.26450649077,-2804.451025062922,7051.170712848987,2695.262753398747,22634.85165057798,12404.346454661663,8451.283985529422,11662.201483512103,0.012,1.018,0.132,2019-03-17T21:28:58.488419,17,EyesClosed
-18756.913394560026,-2912.342895548689,7011.094035040622,2787.776623699263,22504.585683892452,12836.20450928265,8347.12485636769,11732.296554123945,0.0,0.0,0.0,2019-03-17T21:28:58.489264,17,EyesClosed
-18799.046432858282,-2981.186268471035,6922.245850830776,2601.3854266864573,22459.882194981838,12625.092282902275,8289.837335328739,11583.232770351502,0.0,0.0,0.0,2019-03-17T21:28:58.495556,17,EyesClosed
-18738.003818750836,-2925.508073032865,6931.007734657256,2472.818192579531,22535.18522205177,12215.295400058676,8338.474731263486,11480.258283645902,0.0,0.0,0.0,2019-03-17T21:28:58.496334,17,EyesClosed
-18719.742443530853,-2894.8414796401835,6967.754002541781,2588.46611839129,22556.777007195593,12325.020113589779,8368.649586278152,11566.178389332103,0.0,0.0,0.0,2019-03-17T21:28:58.502813,17,EyesClosed
-18750.789016579274,-2905.927944890016,6963.820095517647,2727.15869273647,22513.03464329656,12692.12516452374,8347.907167423626,11675.545474951921,0.0,0.0,0.0,2019-03-17T21:28:58.503645,17,EyesClosed
-18746.98922002187,-2904.76565417834,6952.42070584544,2656.9518634023507,22513.146402018836,12636.31285861884,8340.59814698674,11627.712741817564,0.0,0.0,0.0,2019-03-17T21:28:58.510985,17,EyesClosed
-18706.107879413114,-2889.030026081804,6963.66363330646,2514.5041959886785,22559.258050830133,12266.927929750434,8364.000423431447,11520.469071921001,0.0,0.0,0.0,2019-03-17T21:28:58.511623,17,EyesClosed
-18674.03312611975,-2859.6151303786196,6987.647055107004,2582.2523334327143,22579.03934467308,12288.609121872083,8388.341473143277,11569.262930066936,0.0,0.0,0.0,2019-03-17T21:28:58.517901,17,EyesClosed
-18712.65694053852,-2872.6909008849743,6981.902656781991,2740.4132771984673,22533.75471040663,12672.634443358713,8369.297786867355,11694.097422849825,0.0,0.0,0.0,2019-03-17T21:28:58.524890,17,EyesClosed
-18742.340057175166,-2884.9396568464826,6958.388621615008,2701.901221501973,22510.55359966202,12707.681978664636,8349.114161624213,11669.398745226712,0.01,1.03,0.124,2019-03-17T21:28:58.525706,17,EyesClosed
-18711.293484126745,-2869.226380494402,6967.508133352773,2554.558522052589,22559.347457807955,12348.48944526785,8377.299711382355,11561.216302063025,0.0,0.0,0.0,2019-03-17T21:28:58.532654,17,EyesClosed
-18692.003928661816,-2849.9368250294715,6987.557648129184,2576.3738246409685,22586.214254643233,12264.782162282725,8403.42890065061,11574.984976647494,0.0,0.0,0.0,2019-03-17T21:28:58.533430,17,EyesClosed
-18718.937780730463,-2853.5578076312313,6983.176706215943,2732.3666491945564,22546.13757683487,12621.314838089329,8388.095603954269,11695.952617639616,0.0,0.0,0.0,2019-03-17T21:28:58.540569,17,EyesClosed
-18754.700571858953,-2889.499412715365,6944.172912141432,2713.3453146630904,22501.478791413163,12733.788816188433,8348.287147079367,11685.670815190175,0.0,0.0,0.0,2019-03-17T21:28:58.541360,17,EyesClosed
-18731.432405880976,-2892.2710290278233,6936.662726004449,2544.4778853032453,22535.945181363248,12384.02871895179,8363.441629820065,11561.082191596293,0.0,0.0,0.0,2019-03-17T21:28:58.547719,17,EyesClosed
-18653.044838076217,-2815.135158912559,6967.798706030692,2521.008553625173,22633.510545910663,12137.578384587572,8448.691183172607,11541.837339620273,0.0,0.0,0.0,2019-03-17T21:28:58.548401,17,EyesClosed
-18660.756189913296,-2815.0234001902822,7047.080343613666,2763.8826088765395,22622.66994984984,12570.35286073123,8459.576482722341,11732.56477505741,0.0,0.0,0.0,2019-03-17T21:28:58.555329,17,EyesClosed
-18785.61303444064,-2937.957994694471,6974.995967745301,2760.8204198861627,22479.64113708033,12869.575663754424,8335.054914361825,11727.60268778833,0.0,0.0,0.0,2019-03-17T21:28:58.555971,17,EyesClosed
-18769.832702855194,-2925.373962566133,6897.256600529743,2525.4341990273238,22504.719794359185,12442.903213847067,8336.038391117858,11544.720714655008,0.0,0.0,0.0,2019-03-17T21:28:58.563453,17,EyesClosed
-18655.16825379947,-2815.2022141459247,6968.111630453066,2507.463396485257,22640.104310524977,12122.200384402322,8452.826255896838,11530.683819137075,0.01,1.036,0.114,2019-03-17T21:28:58.564029,17,EyesClosed
-18677.98938488834,-2824.5005398393323,7044.44283776794,2731.226710227336,22615.070356735036,12517.490985094428,8451.641613440706,11700.89235316424,0.0,0.0,0.0,2019-03-17T21:28:58.571232,17,EyesClosed
-18799.359357280657,-2943.434172086021,6973.878380522536,2770.901056635506,22470.991011976126,12888.038204674507,8329.623440459185,11727.803853488429,0.0,0.0,0.0,2019-03-17T21:28:58.571874,17,EyesClosed
-18801.750993937374,-2962.63432057313,6882.057414300134,2549.7305452502424,22471.818026520974,12537.629906848659,8309.68568440505,11552.521473469911,0.0,0.0,0.0,2019-03-17T21:28:58.577545,17,EyesClosed
-18685.208998347403,-2847.321670928201,6944.977574941823,2491.168974777338,22620.211257959756,12126.044884448635,8435.52600568843,11508.287371192859,0.0,0.0,0.0,2019-03-17T21:28:58.586350,17,EyesClosed
-18679.84457967813,-2824.969926472894,7035.72565743037,2699.1519569339703,22630.15778424237,12418.606867624148,8461.454029256587,11667.07416380336,0.0,0.0,0.0,2019-03-17T21:28:58.587155,17,EyesClosed
-18797.235941557403,-2940.930776707027,6990.865706308568,2789.676521977964,22485.564349360986,12874.604806256868,8344.085019121769,11734.777597758484,0.0,0.0,0.0,2019-03-17T21:28:58.594093,17,EyesClosed
-18828.01429367236,-2978.7722800698616,6890.349911493053,2591.975342270773,22453.131968156336,12643.68893428909,8297.705149377007,11580.617616250232,0.0,0.0,0.0,2019-03-17T21:28:58.594794,17,EyesClosed
-18707.09135616915,-2863.794906591762,6921.530595008207,2471.1418117453827,22591.869245990427,12162.008841277224,8406.491089640986,11493.579923341265,0.0,0.0,0.0,2019-03-17T21:28:58.600807,17,EyesClosed
-18664.17600681496,-2811.0447896772375,7031.881157384058,2653.934377900884,22646.00517106118,12345.650773722027,8470.394727038709,11644.007163525483,0.0,0.0,0.0,2019-03-17T21:28:58.601676,17,EyesClosed
-18782.506141961356,-2923.272898587334,7008.5235844282615,2793.2751528352683,22509.346605461433,12851.381343767804,8363.978071686992,11751.675516566696,0.01,1.032,0.112,2019-03-17T21:28:58.607418,17,EyesClosed
-18847.147386926103,-2992.406844187599,6894.46263247283,2625.7264763982866,22434.132985369324,12740.069656380374,8284.092937003725,11615.15106143368,0.0,0.0,0.0,2019-03-17T21:28:58.608059,17,EyesClosed
-18728.88430701307,-2878.94938933246,6905.772615167215,2470.9629977897403,22565.270670088612,12224.660780985449,8383.759365529939,11494.965731497496,0.0,0.0,0.0,2019-03-17T21:28:58.615547,17,EyesClosed
-18654.78827414373,-2800.539469783243,7017.419578721474,2616.9198890828957,22649.156767029377,12267.151447194989,8465.164418836168,11604.645741539687,0.0,0.0,0.0,2019-03-17T21:28:58.616222,17,EyesClosed
-18757.51689166032,-2898.0377790972925,7020.951154345412,2793.1633941129917,22532.32419876149,12789.310549415417,8381.166563173123,11739.784388516473,0.0,0.0,0.0,2019-03-17T21:28:58.623389,17,EyesClosed
-18838.92194496655,-2984.762547583884,6915.741493194282,2675.0791281556044,22434.021226647048,12813.852764827343,8287.423346927566,11640.408532668178,0.0,0.0,0.0,2019-03-17T21:28:58.624025,17,EyesClosed
-18754.745275347865,-2905.2573925563565,6894.842612128569,2481.5800764060114,22533.777062151083,12289.682005605937,8355.596167516253,11485.421536615078,0.0,0.0,0.0,2019-03-17T21:28:58.630593,17,EyesClosed
-18660.376210257557,-2806.440330319444,7005.081415782144,2580.017158987184,22650.90020309689,12203.717196430827,8463.420982768654,11565.932520143095,0.0,0.0,0.0,2019-03-17T21:28:58.631235,17,EyesClosed
-18731.81238553672,-2871.7074241289406,7037.759666175803,2786.3237603096677,22565.04715264406,12717.94142936962,8408.14511873068,11727.669743021697,0.0,0.0,0.0,2019-03-17T21:28:58.637142,17,EyesClosed
-18836.86558447666,-2982.6167801161746,6934.315792836642,2716.4969106312888,22441.576116272943,12878.046974902985,8295.872306331672,11669.577559182353,0.0,0.0,0.0,2019-03-17T21:28:58.637776,17,EyesClosed
-18788.697575175476,-2935.119323148647,6879.889295087969,2495.169937034838,22508.65370138332,12387.06855619771,8335.032562617369,11498.094975721238,0.002,1.026,0.114,2019-03-17T21:28:58.645087,17,EyesClosed
-18666.433533004943,-2816.185690901958,6981.925008526446,2538.912300933874,22647.547441428596,12172.044774537657,8460.202331567089,11540.228014019493,0.0,0.0,0.0,2019-03-17T21:28:58.652862,17,EyesClosed
-18711.584056804666,-2858.4304879224883,7039.033715609756,2757.154733795492,22594.015013458134,12635.68700977409,8436.397723722188,11718.572583028386,0.0,0.0,0.0,2019-03-17T21:28:58.653339,17,EyesClosed
-18840.10658742268,-2985.6566173620963,6947.100990665078,2742.536692921721,22451.433235577733,12919.397702145303,8313.016094328892,11708.246077090034,0.0,0.0,0.0,2019-03-17T21:28:58.660064,17,EyesClosed
-18812.97156965394,-2965.830620030239,6871.55209440614,2514.660658199866,22481.71984931467,12496.055662161787,8317.665257175597,11531.108502281726,0.0,0.0,0.0,2019-03-17T21:28:58.660550,17,EyesClosed
-18691.69100423944,-2845.1982552049467,6951.437229089407,2497.718035902743,22629.308417953067,12156.197387718843,8443.326764503332,11519.887926565163,0.0,0.0,0.0,2019-03-17T21:28:58.667527,17,EyesClosed
-18704.096222412136,-2851.8143715637175,7034.518663229784,2723.090675245604,22613.975121256724,12539.418046405084,8450.658136684673,11701.585257242354,0.0,0.0,0.0,2019-03-17T21:28:58.668174,17,EyesClosed
-18839.234869388925,-2982.9967597719146,6963.7977437731915,2765.7825071552406,22458.71990427016,12923.421016147258,8319.45339673202,11733.548251813443,0.0,0.0,0.0,2019-03-17T21:28:58.675660,17,EyesClosed
-18844.934564225026,-3000.49817568042,6869.003995538234,2545.193141125815,22447.320514597955,12590.000044107443,8286.462221915986,11557.058877594338,0.0,0.0,0.0,2019-03-17T21:28:58.676492,17,EyesClosed
-18718.915428986005,-2881.184563777991,6921.485891519295,2468.6384163663884,22595.914911736836,12152.621108605994,8404.94881927357,11499.257266432915,0.0,0.0,0.0,2019-03-17T21:28:58.683003,17,EyesClosed
-18698.821210720685,-2844.348888915645,7027.477863726362,2680.935285202895,22621.57471437153,12430.65445788556,8446.523063960442,11668.996413826515,-0.004,1.038,0.12,2019-03-17T21:28:58.683927,17,EyesClosed
-18826.002636671383,-2957.985157726426,6983.042595749212,2778.902981150506,22471.974488732158,12897.023605945542,8326.494196235442,11743.897109496249,0.0,0.0,0.0,2019-03-17T21:28:58.690402,17,EyesClosed
-18865.744038312918,-3012.3222484972775,6880.224571254799,2586.7897375571415,22429.05913937797,12692.348681968295,8271.106573475192,11594.3862908347,0.0,0.0,0.0,2019-03-17T21:28:58.691070,17,EyesClosed
-18738.674371084497,-2904.028046611315,6911.248792558765,2461.1282302294053,22569.852777701948,12196.877562627502,8378.104374182747,11499.793708299841,0.0,0.0,0.0,2019-03-17T21:28:58.698535,17,EyesClosed
-18679.777524444762,-2847.8804645395835,7024.795654391725,2642.5349882286773,22633.935229055314,12349.182349345965,8450.546377962397,11643.940108292116,0.0,0.0,0.0,2019-03-17T21:28:58.699318,17,EyesClosed
-18799.113488091647,-2952.576035568242,7014.0444653087225,2799.22071686038,22503.289282714046,12865.552349752468,8352.55633027033,11761.532635871486,0.0,0.0,0.0,2019-03-17T21:28:58.705608,17,EyesClosed
-18875.48939889543,-3030.8741963951825,6897.614228441028,2641.28329053918,22416.81038341646,12785.15312494673,8263.797553038306,11631.311372674869,0.0,0.0,0.0,2019-03-17T21:28:58.712365,17,EyesClosed
-18771.978470322905,-2935.0969714041917,6898.530649963695,2472.326454201514,22539.387350009365,12263.195188426398,8354.143304126657,11501.984179256462,0.0,0.0,0.0,2019-03-17T21:28:58.713303,17,EyesClosed
-18683.107934368603,-2848.081630239681,7016.525508943261,2616.0258193046834,22636.930362812327,12282.082412491132,8449.115866317257,11612.15592767667,0.0,0.0,0.0,2019-03-17T21:28:58.719800,17,EyesClosed
-18786.6859181745,-2949.4244396000436,7021.375837490063,2796.7173214813856,22523.49525970164,12798.63122685328,8367.576702544296,11747.763961287017,0.0,0.0,0.0,2019-03-17T21:28:58.720519,17,EyesClosed
-18873.745962827918,-3032.349411529233,6916.009714127746,2696.4250441104227,22418.598522972887,12863.83126542941,8267.329128662244,11663.900216090706,0.0,1.036,0.122,2019-03-17T21:28:58.727871,17,EyesClosed
-18787.512932719343,-2948.44096284401,6888.204144025343,2492.688893400299,22513.481678185664,12345.58371848866,8330.919841637593,11505.381644413668,0.0,0.0,0.0,2019-03-17T21:28:58.728510,17,EyesClosed
-18682.4597337794,-2835.5870050891644,7002.57802040315,2583.03464448865,22641.333656470022,12224.258449585253,8449.115866317257,11575.208494092047,0.0,0.0,0.0,2019-03-17T21:28:58.736012,17,EyesClosed
-18759.059162027737,-2908.900726902572,7044.6216517235825,2797.6560947485086,22565.091856132967,12728.580859730348,8402.668941339129,11741.79604551745,0.0,0.0,0.0,2019-03-17T21:28:58.736947,17,EyesClosed
-18865.699334824007,-3017.59726018873,6948.8891302215025,2743.184893510925,22436.59167725941,12924.628010347846,8286.59633238272,11696.936094395649,0.0,0.0,0.0,2019-03-17T21:28:58.742633,17,EyesClosed
-18818.313636578758,-2983.1308702386464,6885.656045157439,2509.6091639529664,22491.085230241446,12441.070370801732,8311.004437327914,11514.65761836262,0.0,0.0,0.0,2019-03-17T21:28:58.743544,17,EyesClosed
-18699.424707820977,-2863.5490374027536,6979.086336980622,2535.8277601990417,22629.598990630984,12183.779440376693,8431.994430064491,11535.467092450512,0.0,0.0,0.0,2019-03-17T21:28:58.750515,17,EyesClosed
-18733.75698730433,-2886.3925202360774,7053.070611127689,2765.7825071552406,22592.830371002005,12628.243878870473,8419.723322358528,11714.973952171082,0.0,0.0,0.0,2019-03-17T21:28:58.751285,17,EyesClosed
-18858.323259153756,-3013.9315740980596,6970.2573979207755,2765.4919344773216,22449.82390997695,12937.837891320933,8295.291160975834,11712.69407423664,0.0,0.0,0.0,2019-03-17T21:28:58.758787,17,EyesClosed
-18835.747997253897,-2998.531222168353,6890.931056848891,2542.0191934131617,22474.991974233624,12539.060418493798,8299.001550555415,11537.814025618318,0.0,0.0,0.0,2019-03-17T21:28:58.759572,17,EyesClosed
-18701.458716566412,-2860.3080344567343,6971.062060721167,2520.494463502701,22629.77780458663,12185.522876444207,8429.62514515223,11521.676066121587,0.006,1.022,0.132,2019-03-17T21:28:58.767371,17,EyesClosed
-18703.55978054521,-2855.0106710208265,7051.058954126711,2732.9254428059394,22618.19960095878,12538.456921393505,8438.47643595653,11691.146992581725,0.0,0.0,0.0,2019-03-17T21:28:58.773217,17,EyesClosed
-18822.336950580713,-2976.11242247968,6988.295255696208,2792.9845801573492,22468.77818927505,12953.327650228459,8317.329981008766,11739.113836182814,0.0,0.0,0.0,2019-03-17T21:28:58.774040,17,EyesClosed
-18857.54094809782,-2999.492347179931,6883.040891056167,2574.0939467065273,22444.861822707873,12650.953251237066,8276.538047377831,11567.72065969952,0.0,0.0,0.0,2019-03-17T21:28:58.780028,17,EyesClosed
-18726.827946523186,-2872.445031695966,6930.94067942389,2484.910486329852,22592.76331576864,12201.034987096189,8395.605790091251,11504.286408935359,0.0,0.0,0.0,2019-03-17T21:28:58.780695,17,EyesClosed
-18695.088469396647,-2853.602511120142,7033.043448095733,2684.355102104557,22624.86042080646,12444.825463870224,8440.19752027959,11662.603814912298,0.0,0.0,0.0,2019-03-17T21:28:58.788149,17,EyesClosed
-18816.68195923352,-2972.3573294111884,7000.231087235343,2799.0195511602824,22487.06191623949,12926.192632459717,8330.405751515122,11751.586109588876,0.0,0.0,0.0,2019-03-17T21:28:58.788788,17,EyesClosed
-18864.06765747877,-3029.041353349847,6889.0758620591005,2607.2862872226583,22430.623761489842,12747.33397332835,8264.423401883054,11600.622427537732,0.0,0.0,0.0,2019-03-17T21:28:58.795623,17,EyesClosed
-18751.48192065739,-2922.691753231496,6906.823147156614,2463.9669017752294,22564.108379376936,12242.251603871777,8366.257949621433,11490.428327373067,0.0,0.0,0.0,2019-03-17T21:28:58.796327,17,EyesClosed
-18683.063230879692,-2844.70651682693,7018.000724077311,2635.80711314763,22635.27633372263,12358.458323294917,8443.125598803235,11625.410512138667,0.0,0.0,0.0,2019-03-17T21:28:58.802888,17,EyesClosed
-18787.803505397264,-2949.3573843666777,7005.349636715608,2788.782452199752,22505.50210541512,12871.944948666687,8343.637984232662,11743.338315884866,0.008,1.022,0.134,2019-03-17T21:28:58.803702,17,EyesClosed
-18864.380581901143,-3022.5146439688974,6892.674492916405,2639.651613193943,22411.58007521392,12826.97323882261,8247.905462730583,11619.621410324742,0.0,0.0,0.0,2019-03-17T21:28:58.810870,17,EyesClosed
-18769.899758088563,-2902.1057965881582,6886.661873657928,2459.1612767173383,22525.350454491432,12302.467203434373,8328.550556725331,11475.676176032564,0.0,0.0,0.0,2019-03-17T21:28:58.811605,17,EyesClosed
-18667.03703010524,-2795.5550307697094,7008.814157106181,2592.8694120489854,22635.92453431184,12287.469182904862,8435.86128185526,11579.857656938751,0.0,0.0,0.0,2019-03-17T21:28:58.819013,17,EyesClosed
-18737.93676351747,-2901.3905407655884,7038.385515020552,2794.6833127359528,22540.683751187775,12807.236648468572,8370.594188045763,11732.140091912759,0.0,0.0,0.0,2019-03-17T21:28:58.819651,17,EyesClosed
-18852.86943350666,-3044.8663884242046,6927.900842177969,2694.972180720828,22417.950322383684,12893.246161132594,8251.995831965904,11642.844872813806,0.0,0.0,0.0,2019-03-17T21:28:58.825224,17,EyesClosed
-18798.420584013533,-2969.5857130987306,6895.915495862424,2490.4090154658575,22514.331044474966,12388.700233542948,8315.340675752244,11485.13096393716,0.0,0.0,0.0,2019-03-17T21:28:58.832918,17,EyesClosed
-18696.116649641594,-2844.728868571385,7001.058101780189,2561.6663767893765,22640.953676814283,12230.51693803274,8431.279174241921,11543.848996621251,0.0,0.0,0.0,2019-03-17T21:28:58.833572,17,EyesClosed
-18759.349734705655,-2909.794796680784,7042.565291233694,2774.164411325981,22569.65161200185,12717.8520223918,8389.794336532872,11714.79513821544,0.0,0.0,0.0,2019-03-17T21:28:58.840629,17,EyesClosed
-18869.83440754824,-3022.626402691174,6948.330336610119,2732.7242771058413,22435.47409003664,12944.342248957426,8269.385489152133,11683.346233766822,0.0,0.0,0.0,2019-03-17T21:28:58.841351,17,EyesClosed
-18830.83061347373,-2996.3854547006435,6874.748393863249,2494.365274234447,22475.461360867186,12476.252016574386,8282.505963147398,11500.397205400135,0.012,1.024,0.134,2019-03-17T21:28:58.847796,17,EyesClosed
-18702.75511774482,-2862.4314501799886,6963.529522839728,2509.2068325527707,22618.71369108125,12198.665702183927,8409.910906542647,11519.731464353976,0.0,0.0,0.0,2019-03-17T21:28:58.848610,17,EyesClosed
-18728.75019654634,-2885.766671391329,7034.339849274141,2734.668878873453,22586.61658604343,12625.271096857918,8405.507612884952,11702.904010165217,0.0,0.0,0.0,2019-03-17T21:28:58.855243,17,EyesClosed
-18864.78291330134,-3019.318344511789,6956.42166810294,2749.577492425143,22438.893906938305,12961.508388699101,8278.72851833445,11712.828184703372,0.0,0.0,0.0,2019-03-17T21:28:58.855882,17,EyesClosed
-18853.383523629134,-3014.9597543430036,6867.059393770623,2520.0027251246843,22446.940534942216,12580.67936666958,8264.87043677216,11531.80140635984,0.0,0.0,0.0,2019-03-17T21:28:58.863108,17,EyesClosed
-18714.378024861577,-2873.2273427519017,6934.114627136544,2474.427518180313,22595.333766380998,12191.043757324667,8389.213191177034,11497.335016409757,0.0,0.0,0.0,2019-03-17T21:28:58.863746,17,EyesClosed
-18699.871742710086,-2849.2662726958124,7030.920032372479,2698.280238900213,22604.47562986322,12522.944810741523,8418.471624669031,11671.656271416698,0.0,0.0,0.0,2019-03-17T21:28:58.871096,17,EyesClosed
-18827.366093083154,-2993.8373558327385,6974.638339834016,2775.6172747155756,22457.937593214225,12955.786342118543,8297.63809414364,11726.865080221305,0.0,0.0,0.0,2019-03-17T21:28:58.871880,17,EyesClosed
-18856.691581808518,-3025.59918470373,6866.590007137062,2561.9345977228404,22426.511040510064,12683.452687675082,8250.565320320764,11556.433028749589,0.0,0.0,0.0,2019-03-17T21:28:58.877939,17,EyesClosed
-18741.580097863687,-2898.887145386594,6907.113719834533,2463.206942463749,22571.015068413624,12214.244868069276,8365.766211243417,11475.944396966028,0.0,0.0,0.0,2019-03-17T21:28:58.878598,17,EyesClosed
-18698.687100253952,-2843.119542970603,7022.828700879658,2670.541724031177,22623.251095205676,12432.84492884218,8429.33457247431,11635.088817487815,0.016,1.02,0.138,2019-03-17T21:28:58.884910,17,EyesClosed
-18824.996808170894,-2966.992910741915,6990.083395252633,2798.7289784823633,22481.697497570218,12925.387969659325,8321.152129310623,11727.915612210705,0.0,0.0,0.0,2019-03-17T21:28:58.885759,17,EyesClosed
-18885.79355308933,-3042.206530834023,6870.412155438919,2613.8353483480632,22410.775412413528,12774.938377730654,8241.468160327455,11576.750764459464,0.0,0.0,0.0,2019-03-17T21:28:58.893097,17,EyesClosed
-18772.939595334483,-2935.7898754823063,6889.165269036922,2466.20207622076,22544.818823912006,12267.687889061915,8342.252176076434,11465.595539283222,0.0,0.0,0.0,2019-03-17T21:28:58.900717,17,EyesClosed
-18700.69875725493,-2862.5655606467203,7004.746139615315,2625.8382351205632,22629.353121441978,12349.517625512795,8429.915717830148,11595.548581546376,0.0,0.0,0.0,2019-03-17T21:28:58.901531,17,EyesClosed
-18803.986168382904,-2960.533256594331,6997.191249989421,2790.8164609451846,22503.3116344585,12865.328832307916,8336.261908562412,11722.03710341896,0.0,0.0,0.0,2019-03-17T21:28:58.908031,17,EyesClosed
-18874.304756439302,-3031.723562684484,6890.528725448696,2664.059718139138,22412.071813591938,12867.988689898097,8246.430247596532,11623.376503393234,0.0,0.0,0.0,2019-03-17T21:28:58.908904,17,EyesClosed
-18781.366202994133,-2939.4108580840657,6875.329539219087,2474.6957391137767,22521.371843978388,12346.231919077865,8325.086036334758,11480.213580156993,0.0,0.0,0.0,2019-03-17T21:28:58.915506,17,EyesClosed
-18697.167181630994,-2852.015537263815,6985.233066705831,2578.3184264085803,22626.313284196054,12284.786973570226,8423.456063682564,11566.312499798834,0.0,0.0,0.0,2019-03-17T21:28:58.916219,17,EyesClosed
-18773.72190639042,-2927.4526748004764,7015.810253120691,2777.36071078309,22536.23575404117,12801.760471077023,8362.36874608621,11727.401522088234,0.0,0.0,0.0,2019-03-17T21:28:58.923496,17,EyesClosed
-18884.810076333295,-3041.558330244819,6904.252696544254,2685.9197242164287,22407.646168189785,12918.973019000652,8241.848139983194,11653.59606189681,0.014,1.03,0.13,2019-03-17T21:28:58.924143,17,EyesClosed
-18813.709177220964,-2980.471012648465,6863.728983846782,2474.874553069419,22487.240730195135,12420.216193224931,8292.094861518724,11488.75194653892,0.0,0.0,0.0,2019-03-17T21:28:58.930853,17,EyesClosed
-18694.37321357408,-2862.096174013159,6968.916293253457,2538.2417486002146,22625.352159184476,12233.400313067474,8417.33168570181,11540.85386286424,0.0,0.0,0.0,2019-03-17T21:28:58.931557,17,EyesClosed
-18757.382781193588,-2907.67138095753,7021.465244467884,2760.7533646527963,22563.57193751001,12704.820955374356,8382.03828120688,11713.185812614658,0.0,0.0,0.0,2019-03-17T21:28:58.938239,17,EyesClosed
-18876.942262285025,-3032.5058737404197,6928.37022881153,2739.3403934646126,22425.125232353836,12962.961252088697,8261.383564637134,11690.007053614505,0.0,0.0,0.0,2019-03-17T21:28:58.938876,17,EyesClosed
-18842.811148501773,-3007.4719199504757,6852.731925574771,2512.5148907321563,22461.78209326054,12519.346179884218,8273.364099665177,11507.75092932593,0.0,0.0,0.0,2019-03-17T21:28:58.946145,17,EyesClosed
-18720.32358888669,-2892.963933105938,6927.27499333322,2508.1786523078267,22598.261844904646,12202.08551908559,8389.57081908832,11501.447737389533,0.0,0.0,0.0,2019-03-17T21:28:58.946876,17,EyesClosed
-18753.09124625817,-2916.6791339730185,7002.488613425328,2730.4667509158553,22569.875129446405,12601.041805868364,8387.08977545378,11674.226722029058,0.0,0.0,0.0,2019-03-17T21:28:58.953351,17,EyesClosed
-18875.02001226187,-3030.1589405726127,6939.836673717103,2774.6561497039975,22430.556706256477,12977.623996451379,8274.884018288138,11708.022559645482,0.0,0.0,0.0,2019-03-17T21:28:58.959703,17,EyesClosed
-18868.49330288092,-3025.107446325713,6852.441352896853,2558.224208143259,22436.3458080704,12629.316762604329,8259.595425080708,11538.864557607718,0.0,0.0,0.0,2019-03-17T21:28:58.960594,17,EyesClosed
-18743.971734520404,-2910.890032159094,6912.187565825888,2494.298219001081,22581.85566447445,12215.876545414514,8379.04314744987,11492.887019263151,0.008,1.034,0.132,2019-03-17T21:28:58.967771,17,EyesClosed
-18723.586943577164,-2888.0689010702254,7011.786939118736,2704.739893047797,22600.429964116807,12517.066301949777,8414.895345556182,11662.223835256558,0.0,0.0,0.0,2019-03-17T21:28:58.968414,17,EyesClosed
-18854.903442252093,-3008.1871757730455,6955.393487857997,2784.513269008788,22451.746160000108,12960.122580542873,8290.910219062593,11726.418045332199,0.0,0.0,0.0,2019-03-17T21:28:58.975735,17,EyesClosed
-18892.11909677018,-3047.4591907810204,6846.249919682732,2576.12795545196,22412.183572314214,12718.723740425557,8234.784988735317,11563.138552086182,0.0,0.0,0.0,2019-03-17T21:28:58.976569,17,EyesClosed
-18757.51689166032,-2927.787950967306,6889.992283581768,2468.5043058996566,22561.26970783111,12240.999906182278,8352.489275036964,11479.386565612145,0.0,0.0,0.0,2019-03-17T21:28:58.983033,17,EyesClosed
-18718.915428986005,-2882.637427167586,6997.52652615625,2657.0412703801717,22614.109231723458,12420.037379269288,8414.71653160054,11624.20351793808,0.0,0.0,0.0,2019-03-17T21:28:58.983673,17,EyesClosed
-18852.109474195182,-3001.951039070015,6963.440115861907,2790.9282196674612,22469.046410208513,12919.956495756685,8304.969466324981,11724.22757437558,0.0,0.0,0.0,2019-03-17T21:28:58.990376,17,EyesClosed
-18906.49126845494,-3069.877990469693,6854.095381986544,2627.2463950212473,22397.543179695986,12813.450433427148,8230.67226775554,11593.760441989953,0.0,0.0,0.0,2019-03-17T21:28:58.991118,17,EyesClosed
-18785.09894431817,-2959.4827246049317,6870.322748461098,2473.2875792130926,22535.699312174238,12299.583828399638,8335.099617850736,11475.340899865736,0.0,0.0,0.0,2019-03-17T21:28:58.999062,17,EyesClosed
-18716.054405695726,-2886.3031132582564,6977.342900913108,2613.0530372921276,22618.46782189224,12341.314535297697,8417.979886291014,11586.227904108513,0.0,0.0,0.0,2019-03-17T21:28:58.999739,17,EyesClosed
-18823.87922094813,-2987.690626107529,6975.778278801236,2784.602675986609,22497.075497755468,12862.691326462189,8330.115178837203,11717.052664405426,0.006,1.038,0.122,2019-03-17T21:28:59.005661,17,EyesClosed
-18913.01797783589,-3082.1267464312014,6860.59973962304,2659.0752791256045,22390.882359848307,12884.707794750668,8226.33602933121,11612.670017799142,0.0,0.0,0.0,2019-03-17T21:28:59.006293,17,EyesClosed
-18822.359302325167,-2997.7712628568725,6837.756256789716,2463.6539773528552,22492.87336979787,12364.269776853298,8297.436928443543,11459.828789213752,0.0,0.0,0.0,2019-03-17T21:28:59.012502,17,EyesClosed
-18724.99510347785,-2895.936715118494,6946.944528453891,2562.0910599340273,22609.080089221014,12275.108668221077,8409.642685609184,11540.630345419688,0.0,0.0,0.0,2019-03-17T21:28:59.020463,17,EyesClosed
-18801.01338637035,-2963.930721751538,6978.505191624784,2769.872876390562,22521.59536142294,12782.806191778922,8356.89256869466,11702.479327020566,0.0,0.0,0.0,2019-03-17T21:28:59.020833,17,EyesClosed
-18909.687567912053,-3082.6855400425843,6874.211951996321,2700.6271720680206,22391.66467090424,12940.855376822397,8236.304907358279,11639.134483234226,0.0,0.0,0.0,2019-03-17T21:28:59.026989,17,EyesClosed
-18850.16487242757,-3027.2532137934227,6828.033247951656,2484.999893307673,22466.72182878516,12455.286080275308,8278.080317745247,11470.244702129925,0.0,0.0,0.0,2019-03-17T21:28:59.027458,17,EyesClosed
-18723.206963921424,-2905.4585582564546,6932.5723567691275,2533.525530520145,22606.554342097563,12239.658801514961,8400.634932593695,11509.829641560274,0.0,0.0,0.0,2019-03-17T21:28:59.034975,17,EyesClosed
-18758.925051561004,-2940.0590586732696,6992.586790631627,2754.83015237214,22552.440768771266,12701.669359406158,8374.37163285871,11685.581408212354,0.0,0.0,0.0,2019-03-17T21:28:59.035322,17,EyesClosed
-18890.733288613952,-3060.713775243017,6907.314885534631,2745.487123189822,22412.25062754758,12991.347967546937,8251.146465676602,11674.4055359847,0.0,0.0,0.0,2019-03-17T21:28:59.043066,17,EyesClosed
-18877.411648918587,-3042.2512343229337,6828.055599696112,2516.538204734112,22435.205869103178,12567.20126476303,8248.82188425325,11490.897714006629,0.012,1.03,0.128,2019-03-17T21:28:59.043479,17,EyesClosed
-18745.670467099008,-2911.7170467039405,6906.689036689882,2500.0202655816397,22582.45916157474,12225.934830419403,8371.80118224635,11478.26897838938,0.0,0.0,0.0,2019-03-17T21:28:59.050213,17,EyesClosed
-18746.31866768821,-2914.734532205407,6998.644113379016,2727.7845415812185,22576.89357720537,12610.54129726187,8388.967321988026,11661.776800367452,0.0,0.0,0.0,2019-03-17T21:28:59.051151,17,EyesClosed
-18873.008355260892,-3046.118086113702,6932.974688169324,2773.3597485255896,22429.95320915618,13001.585066507467,8266.54681760631,11695.393824028233,0.0,0.0,0.0,2019-03-17T21:28:59.058027,17,EyesClosed
-18874.01418376138,-3040.7760191888833,6838.0691812120895,2557.911283720885,22426.19811608769,12678.736469595013,8244.575052806742,11527.554574913333,0.0,0.0,0.0,2019-03-17T21:28:59.058669,17,EyesClosed
-18749.67142935651,-2923.250546842879,6890.0146353262235,2478.5402391600896,22571.79737946956,12242.229252127321,8365.118010654212,11469.03770792934,0.0,0.0,0.0,2019-03-17T21:28:59.066180,17,EyesClosed
-18723.966923232903,-2911.2029565814682,6993.033825520733,2682.2093346368474,22599.37943212741,12509.198487901509,8408.525098386419,11631.19961395259,0.0,0.0,0.0,2019-03-17T21:28:59.067066,17,EyesClosed
-18844.01814270236,-3032.5729289737856,6950.140827910999,2783.865068419584,22457.82583449195,12976.595816206434,8297.951018566015,11709.922457924184,0.0,0.0,0.0,2019-03-17T21:28:59.074506,17,EyesClosed
-18876.718744840473,-3070.2579701254335,6847.523969116684,2592.332970182058,22413.77054617054,12773.23964515205,8243.01043069487,11558.802313661852,0.0,0.0,0.0,2019-03-17T21:28:59.080164,17,EyesClosed
-18766.435237697988,-2953.6489193020966,6877.40825145343,2464.458640153246,22555.614716483917,12278.95316826739,8356.780809972382,11461.84044621473,0.0,0.0,0.0,2019-03-17T21:28:59.080576,17,EyesClosed
-18723.430481365976,-2899.960029120449,6980.7627178147695,2635.6953544253533,22611.42702238882,12415.45527165595,8421.176185748123,11591.480564055511,0.008,1.034,0.11800000000000001,2019-03-17T21:28:59.087190,17,EyesClosed
-18833.512822808367,-3003.2474402484227,6962.814267017158,2780.31114105119,22478.232977179647,12926.997295260107,8318.671085676086,11701.78642294245,0.0,0.0,0.0,2019-03-17T21:28:59.087498,17,EyesClosed
-18891.470896180977,-3070.8391154812716,6854.78828606466,2625.2794415091803,22401.879418120316,12856.186968825696,8235.656706769074,11575.923749914617,0.0,0.0,0.0,2019-03-17T21:28:59.095203,17,EyesClosed
-18783.422563484022,-2971.2844456773337,6857.4928471437515,2458.1107447279387,22525.238695769156,12338.788788174246,8325.711885179506,11445.590727995721,0.0,0.0,0.0,2019-03-17T21:28:59.095527,17,EyesClosed
-18706.666673024498,-2889.186488292991,6968.983348486823,2593.4952608937338,22617.707862580763,12350.948137157935,8416.348208945778,11552.700287425552,0.0,0.0,0.0,2019-03-17T21:28:59.103652,17,EyesClosed
-18802.220380570936,-2977.721748080462,6981.120345726054,2779.998216628816,22508.184314749757,12875.945910924187,8337.893585907648,11698.925399652171,0.0,0.0,0.0,2019-03-17T21:28:59.104291,17,EyesClosed
-18900.07631779627,-3073.1636969046235,6871.105059517034,2669.714709486331,22394.078659305414,12932.294658696015,8228.794721221295,11604.91396247315,0.0,0.0,0.0,2019-03-17T21:28:59.110284,17,EyesClosed
-18822.985151169916,-2999.693512880029,6841.801922536126,2468.9960442776733,22486.279605183558,12415.231754211398,8290.440832429033,11448.094123374716,0.0,0.0,0.0,2019-03-17T21:28:59.111018,17,EyesClosed
-18716.032053951272,-2894.349741262167,6949.1797028994215,2558.1124494209826,22609.057737476556,12294.308816708186,8405.217040207033,11521.720769610498,0.0,0.0,0.0,2019-03-17T21:28:59.118293,17,EyesClosed
-18769.877406344105,-2954.3865268691216,6991.871534809057,2774.8796671485507,22532.726530161683,12800.10644198733,8361.228807118989,11694.969140883582,0.0,0.0,0.0,2019-03-17T21:28:59.119156,17,EyesClosed
-18886.419401934076,-3078.1928394070674,6887.98062658079,2715.1781577084253,22398.258435518557,12995.28187457107,8242.25047138339,11648.902195561195,0.006,1.026,0.128,2019-03-17T21:28:59.126197,17,EyesClosed
-18832.395235585598,-3022.7828649023613,6838.426809123374,2500.8249283820305,22468.040581708025,12530.611459089692,8283.176515481056,11486.405013371112,0.0,0.0,0.0,2019-03-17T21:28:59.126948,17,EyesClosed
-18714.154507417024,-2889.85704062665,6938.696734749882,2535.6042427544885,22613.46103113425,12284.585807870128,8412.324894943822,11520.290257965358,0.0,0.0,0.0,2019-03-17T21:28:59.133250,17,EyesClosed
-18756.332249204188,-2917.3943897955883,7004.075587281655,2757.937044851428,22566.65647824484,12725.473967251059,8393.214153434534,11694.723271694575,0.0,0.0,0.0,2019-03-17T21:28:59.134041,17,EyesClosed
-18880.652651864606,-3048.688536726062,6915.27210656072,2755.0536698166934,22413.167049070245,13033.168081422817,8260.735364047929,11688.375376269267,0.0,0.0,0.0,2019-03-17T21:28:59.140639,17,EyesClosed
-18863.48651212293,-3043.9946703904475,6830.3131258860985,2525.4341990273238,22430.444947534197,12633.384780095193,8256.577939579242,11508.533240381867,0.0,0.0,0.0,2019-03-17T21:28:59.147735,17,EyesClosed
-18728.549030846243,-2911.270011814834,6913.2604495597425,2501.1602045488603,22586.974213954712,12273.0970112201,8388.743804543472,11492.283522162857,0.0,0.0,0.0,2019-03-17T21:28:59.148443,17,EyesClosed
-18728.370216890602,-2910.6218112256306,7006.444872193918,2723.8282828126294,22592.226873901713,12627.819195725822,8414.604772878263,11671.320995249867,0.0,0.0,0.0,2019-03-17T21:28:59.155881,17,EyesClosed
-18858.25620392039,-3039.211397077012,6937.892071949491,2775.6619782044863,22440.05619764998,13031.715218033221,8288.965617294982,11707.776690456474,0.0,0.0,0.0,2019-03-17T21:28:59.156731,17,EyesClosed
-18865.63227959064,-3054.187065862068,6839.097361457034,2565.2873593911363,22425.795784687496,12738.840310435333,8259.215445424968,11542.105560553737,0.0,0.0,0.0,2019-03-17T21:28:59.163071,17,EyesClosed
-18736.170975705503,-2922.021200897837,6884.2031817678435,2475.6792158698104,22571.17153062481,12286.28454044873,8379.780755016895,11474.022146942872,0.008,1.028,0.132,2019-03-17T21:28:59.164001,17,EyesClosed
-18705.996120690837,-2884.6937876574743,6987.803517318192,2678.476593312811,22608.99068224319,12528.085711966243,8432.374409720233,11631.154910463682,0.0,0.0,0.0,2019-03-17T21:28:59.170732,17,EyesClosed
-18827.79077622781,-3007.337809483744,6954.253548890776,2794.8174232026845,22466.051276451504,13015.24198236966,8318.089940320247,11719.109024895315,0.0,0.0,0.0,2019-03-17T21:28:59.171549,17,EyesClosed
-18870.706125581997,-3055.1928943625567,6846.629899338473,2616.4057989604235,22411.20009555818,12845.279317531506,8252.241701154911,11573.487409768988,0.0,0.0,0.0,2019-03-17T21:28:59.178677,17,EyesClosed
-18753.18065323599,-2940.7072592624736,6867.93111180438,2482.8988293288744,22545.489376245663,12338.609974218605,8354.344469826754,11462.131018892649,0.0,0.0,0.0,2019-03-17T21:28:59.179356,17,EyesClosed
-18687.198303603924,-2871.3944997065664,6986.328302184142,2657.1530291024483,22620.188906215302,12455.889577375601,8434.296659743388,11596.755575746964,0.0,0.0,0.0,2019-03-17T21:28:59.185811,17,EyesClosed
-18796.833610157206,-2974.8607247901828,6980.695662581404,2818.353810114123,22493.566273875986,12976.327595272971,8339.50291150843,11720.383074329267,0.0,0.0,0.0,2019-03-17T21:28:59.186465,17,EyesClosed
-18887.760506601397,-3073.6107317937294,6857.6716610993935,2659.455258781345,22396.47029596213,12922.884574280331,8238.294212614801,11593.827497223318,0.0,0.0,0.0,2019-03-17T21:28:59.193076,17,EyesClosed
-18790.57512170972,-2976.5371056243307,6846.808713294115,2477.5791141485115,22513.504029930118,12395.361053390629,8321.822681644284,11456.498379289911,0.0,0.0,0.0,2019-03-17T21:28:59.193867,17,EyesClosed
-18704.02916717877,-2884.962008590938,6956.354612869574,2601.541888897644,22614.869191034937,12368.941291444457,8418.024589779925,11552.588528703276,0.0,0.0,0.0,2019-03-17T21:28:59.200275,17,EyesClosed
-18802.801525926774,-2981.4321376600433,6966.055269963178,2784.0885858641373,22502.30580595801,12880.55037028198,8336.440722518055,11694.902085650217,0.01,1.026,0.126,2019-03-17T21:28:59.208101,17,EyesClosed
-18899.897503840628,-3083.6690167986176,6857.761068077215,2686.7243870168195,22385.16031326775,12977.154609817817,8226.917174687049,11614.77108177794,0.0,0.0,0.0,2019-03-17T21:28:59.209031,17,EyesClosed
-18822.046377902792,-3007.2931059948332,6829.955497974814,2487.7044543867655,22480.91518651428,12475.581464240726,8291.983102796448,11460.655803758598,0.0,0.0,0.0,2019-03-17T21:28:59.215352,17,EyesClosed
-18710.868800982094,-2895.7802529073065,6938.18264462741,2564.169772168371,22610.600007843972,12318.739273397836,8411.922563543625,11522.301914966336,0.0,0.0,0.0,2019-03-17T21:28:59.216013,17,EyesClosed
-18763.015420796328,-2947.6139482991634,6992.229162720342,2784.3568067976007,22546.74107393516,12816.356160206338,8380.361900372733,11699.193620585636,0.0,0.0,0.0,2019-03-17T21:28:59.222650,17,EyesClosed
-18881.680832109552,-3069.185086391579,6894.261466772731,2737.9545853083832,22409.166086812747,13039.806549526043,8258.567244835764,11663.766105623974,0.0,0.0,0.0,2019-03-17T21:28:59.223407,17,EyesClosed
-18843.97343921345,-3034.8304551637716,6828.189710162844,2508.5586319635668,22460.463340337676,12579.651186424637,8283.131811992147,11488.081394205261,0.0,0.0,0.0,2019-03-17T21:28:59.230816,17,EyesClosed
-18714.601542306133,-2908.945430391482,6923.698714220371,2530.619803740955,22610.890580521893,12304.076529035156,8413.934220544603,11506.745100825441,0.0,0.0,0.0,2019-03-17T21:28:59.231481,17,EyesClosed
-18752.353638691144,-2925.53042477732,6994.062005765678,2753.801972127196,22572.713800992227,12723.529365483448,8402.221906450022,11680.440506987634,0.0,0.0,0.0,2019-03-17T21:28:59.239001,17,EyesClosed
-18884.050117021816,-3048.979109403981,6914.266278060231,2770.2975595352127,22422.73359569712,13061.219520714227,8274.280521187846,11689.202390814113,0.0,0.0,0.0,2019-03-17T21:28:59.239749,17,EyesClosed
-18867.621584847162,-3058.657414753129,6831.4307131088635,2553.5750452965553,22437.999837160092,12688.168905755152,8265.675099572552,11517.876269564185,0.01,1.04,0.122,2019-03-17T21:28:59.245502,17,EyesClosed
-18742.697685086452,-2936.7733522383396,6894.46263247283,2506.9493063627847,22582.45916157474,12297.14748825401,8384.452269608053,11482.851086002718,0.0,0.0,0.0,2019-03-17T21:28:59.246145,17,EyesClosed
-18726.112690700615,-2912.924040904527,6990.463374908373,2727.583375881121,22593.053888446557,12631.887213216689,8413.084854255301,11661.977966067549,0.0,0.0,0.0,2019-03-17T21:28:59.253507,17,EyesClosed
-18855.618698074664,-3032.662335951607,6930.739513723793,2798.192536615436,22442.15726162878,13064.326413193514,8290.910219062593,11716.784443471963,0.0,0.0,0.0,2019-03-17T21:28:59.254311,17,EyesClosed
-18879.199788475013,-3065.877028212193,6823.786416505149,2587.169717212882,22411.155392069268,12795.680796585179,8244.507997573375,11546.821778633808,0.0,0.0,0.0,2019-03-17T21:28:59.260460,17,EyesClosed
-18747.838586311173,-2941.7130877629625,6867.59583563755,2485.3798729634136,22557.760483951628,12328.506985724805,8360.580606529786,11470.64703353012,0.0,0.0,0.0,2019-03-17T21:28:59.268412,17,EyesClosed
-18711.137021915558,-2896.897840130072,6974.683043322926,2677.4931165567777,22600.653481561363,12536.780540559357,8416.728188601517,11623.152985948682,0.0,0.0,0.0,2019-03-17T21:28:59.269195,17,EyesClosed
-18832.954029196982,-3015.049161320825,6950.56551105565,2805.3674465855893,22461.893851982815,13027.758959264633,8309.730387893962,11717.812623716907,0.0,0.0,0.0,2019-03-17T21:28:59.274913,17,EyesClosed
-18884.184227488546,-3074.460098083031,6843.858283026014,2632.7225724127975,22401.320624508935,12883.50080055008,8242.071657427747,11577.689537726586,0.0,0.0,0.0,2019-03-17T21:28:59.275720,17,EyesClosed
-18765.831740597696,-2961.673195561552,6857.939882032858,2484.754024118665,22534.55937320702,12369.142457144555,8345.2696615779,11463.18155088205,0.0,0.0,0.0,2019-03-17T21:28:59.283079,17,EyesClosed
-18703.313911356203,-2888.1359563035917,6972.984310744323,2644.3007760406467,22619.339539925997,12450.301641261774,8432.754389375972,11589.334796587802,0.014,1.038,0.126,2019-03-17T21:28:59.283957,17,EyesClosed
-18812.882162676116,-2983.868477805672,6975.711223567871,2814.241089134346,22502.238750724646,12974.293586527538,8348.063629634813,11723.80289123093,0.0,0.0,0.0,2019-03-17T21:28:59.291513,17,EyesClosed
-18890.82269559177,-3074.1695254051124,6862.745507090749,2673.849782210563,22402.348804753878,12965.464647467692,8249.268919142356,11611.664189298654,0.0,0.0,0.0,2019-03-17T21:28:59.292168,17,EyesClosed
-18796.319520034733,-2988.718806352473,6844.014745237201,2485.715149130243,22511.201800251223,12443.216138269441,8328.59526021424,11467.428382328557,0.0,0.0,0.0,2019-03-17T21:28:59.298048,17,EyesClosed
-18715.026225450783,-2906.1961658234795,6945.0893336641,2589.0249120026724,22612.790478800594,12379.35720436063,8426.607659650763,11550.800389146852,0.0,0.0,0.0,2019-03-17T21:28:59.298821,17,EyesClosed
-18792.3856130106,-2978.7946318143167,6971.799668288192,2789.74357721133,22523.09292830145,12899.392890857804,8368.224903133501,11712.671722492185,0.0,0.0,0.0,2019-03-17T21:28:59.307135,17,EyesClosed
-18892.275558981368,-3081.2773801419,6864.779515836181,2706.0139424817494,22400.448906475176,13028.071883687006,8256.890864001616,11642.487244902522,0.0,0.0,0.0,2019-03-17T21:28:59.307802,17,EyesClosed
-18832.752863496884,-3020.145359056635,6819.9866199477465,2490.297256743581,22473.583814332942,12527.459863121494,8302.734291879451,11471.675213775065,0.0,0.0,0.0,2019-03-17T21:28:59.315237,17,EyesClosed
-18720.45769935342,-2907.984305379904,6926.157406110455,2553.4856383187343,22607.96250199825,12340.82279691968,8423.925450316126,11519.440891676057,0.0,0.0,0.0,2019-03-17T21:28:59.315859,17,EyesClosed
-18765.943499319972,-2949.91617797806,6984.450755649896,2774.0526526037042,22548.059826858025,12823.68753238768,8393.504726112453,11691.437565259645,0.0,0.0,0.0,2019-03-17T21:28:59.321673,17,EyesClosed
-18883.89365481063,-3062.36780433271,6887.578295180595,2746.8952830905064,22404.405165243767,13082.990119813696,8268.089087973725,11666.381259725245,0.012,1.026,0.134,2019-03-17T21:28:59.327517,17,EyesClosed
-18852.131825939636,-3036.1715598310902,6815.449215823319,2520.9191466473517,22443.185441873724,12645.857053501255,8279.846105557217,11489.444850617034,0.0,0.0,0.0,2019-03-17T21:28:59.328164,17,EyesClosed
-18721.12825168708,-2917.7743694513288,6900.3411412645755,2521.8579199144747,22588.292966877576,12340.666334708492,8402.71364482804,11493.065833218794,0.0,0.0,0.0,2019-03-17T21:28:59.335315,17,EyesClosed
-18742.697685086452,-2934.1581981370687,6981.500325381795,2747.8787598465397,22569.673963746307,12750.798493718923,8407.251048952467,11675.053736573904,0.0,0.0,0.0,2019-03-17T21:28:59.336050,17,EyesClosed
-18874.282404694844,-3060.8702374542045,6911.360551281042,2782.635722474542,22425.68402596522,13121.233954576726,8285.434041671044,11700.668835719685,0.0,0.0,0.0,2019-03-17T21:28:59.343361,17,EyesClosed
-18876.942262285025,-3058.70211824204,6820.344247859031,2560.0346994441393,22426.086357365413,12772.412630607205,8263.417573382565,11526.034656290372,0.0,0.0,0.0,2019-03-17T21:28:59.344127,17,EyesClosed
-18739.702551329443,-2923.1387881206024,6891.623960927005,2508.9609633637624,22581.90036796336,12374.104544413633,8390.37548188871,11487.880228505162,0.0,0.0,0.0,2019-03-17T21:28:59.350432,17,EyesClosed
-18725.956228489427,-2900.5188227318317,6988.630531863038,2720.453169399878,22598.2841966491,12670.84630380229,8423.433711938109,11656.993527054015,0.0,0.0,0.0,2019-03-17T21:28:59.351071,17,EyesClosed
-18863.084180722737,-3041.3795162891765,6935.053400403667,2797.969019170883,22445.644133763806,13111.98033237223,8300.83439360075,11717.276181849978,0.0,0.0,0.0,2019-03-17T21:28:59.357939,17,EyesClosed
-18900.45629745201,-3080.7409382749725,6837.152759689422,2600.7595778417085,22411.892999636293,12871.967300411141,8252.465218599466,11558.489389239478,0.0,0.0,0.0,2019-03-17T21:28:59.358642,17,EyesClosed
-18778.952214592962,-2965.115364207669,6873.809620596126,2489.82787011002,22552.753693193637,12384.475753840894,8360.580606529786,11469.596501540722,0.01,1.032,0.136,2019-03-17T21:28:59.366019,17,EyesClosed
-18731.70062681444,-2922.535291020309,6979.4663166363625,2675.257942111247,22601.055812961557,12561.076886782275,8416.012932778947,11612.804128265874,0.0,0.0,0.0,2019-03-17T21:28:59.366646,17,EyesClosed
-18839.368979855655,-3027.9684696159925,6962.1437146835,2815.6939525239413,22469.49344509762,13070.674308618822,8315.765358896895,11720.718350496096,0.0,0.0,0.0,2019-03-17T21:28:59.374040,17,EyesClosed
-18904.121983542682,-3094.3978541371653,6846.741658060749,2638.71283992682,22391.217636015135,12952.031249050051,8231.3428200892,11579.678842983109,0.0,0.0,0.0,2019-03-17T21:28:59.374714,17,EyesClosed
-18784.115467562136,-2974.4583933899876,6865.964158292313,2488.0397305535953,22527.920905103794,12437.203519010964,8335.680763206574,11464.902635205108,0.0,0.0,0.0,2019-03-17T21:28:59.380345,17,EyesClosed
-18714.69094928395,-2897.0766540857144,6983.556685871683,2637.416438748412,22615.80796430206,12483.784554455824,8424.528947416418,11585.982034919505,0.0,0.0,0.0,2019-03-17T21:28:59.380991,17,EyesClosed
-18818.224229600935,-2997.8383180902388,6981.969712015357,2808.1614146425027,22493.298052942522,13006.43539505427,8333.758513183417,11721.523013296488,0.0,0.0,0.0,2019-03-17T21:28:59.387885,17,EyesClosed
-18910.60398943472,-3094.241391925978,6867.349966448542,2687.1490701614703,22388.80364761396,13034.419779112313,8232.527462545331,11623.06357897086,0.0,0.0,0.0,2019-03-17T21:28:59.395516,17,EyesClosed
-18826.606133771675,-3015.630306676663,6843.858283026014,2494.7005504012764,22489.855884296405,12513.37826411465,8302.175498268069,11472.03284168635,0.0,0.0,0.0,2019-03-17T21:28:59.396288,17,EyesClosed
-18732.41588263701,-2913.14755834908,6949.894958721991,2598.4796999072673,22604.43092637431,12427.324047961718,8409.866203053738,11554.153150815147,0.0,0.0,0.0,2019-03-17T21:28:59.403565,17,EyesClosed
-18809.641159730098,-2976.8500300467053,6985.724805083848,2811.2012518884244,22521.148326533836,12944.99044954663,8356.020850660903,11720.293667351445,0.004,1.03,0.132,2019-03-17T21:28:59.404212,17,EyesClosed
-18916.4154429931,-3087.692330800573,6877.140030519967,2736.836998085618,22390.636490659297,13101.899695622886,8234.025029423838,11655.652422386698,0.0,0.0,0.0,2019-03-17T21:28:59.410255,17,EyesClosed
-18854.232889918436,-3035.07632435278,6827.139178173445,2516.8958326453967,22459.882194981838,12611.301256573352,8273.967596765471,11483.74515578093,0.0,0.0,0.0,2019-03-17T21:28:59.410976,17,EyesClosed
-18738.964943762418,-2913.2593170713567,6927.632621244505,2558.917112221374,22596.250187903668,12387.984977720378,8394.219981935023,11517.876269564185,0.0,0.0,0.0,2019-03-17T21:28:59.418211,17,EyesClosed
-18779.309842504244,-2943.8365034862168,6993.547915643206,2777.5842282276426,22548.283344302577,12849.414390255737,8373.879894480693,11691.54932398192,0.0,0.0,0.0,2019-03-17T21:28:59.418897,17,EyesClosed
-18904.50196319842,-3070.7050050145394,6904.096234333067,2756.931216350939,22404.71808966614,13126.710131968277,8248.978346464437,11672.170361539169,0.0,0.0,0.0,2019-03-17T21:28:59.426160,17,EyesClosed
-18880.675003609063,-3043.882911668171,6824.680486283361,2526.4400275278126,22432.277790579534,12698.361301226772,8251.571148821253,11489.668368061588,0.0,0.0,0.0,2019-03-17T21:28:59.426921,17,EyesClosed
-18748.732656089385,-2929.3972765680883,6904.520917477717,2509.8997366308854,22578.055867917046,12358.748895972836,8374.215170647523,11477.084335933248,0.0,0.0,0.0,2019-03-17T21:28:59.432895,17,EyesClosed
-18767.239900498378,-2944.9987941978925,6987.356482429085,2730.4443991714,22564.957745666237,12740.85196743631,8381.792412017872,11651.629108384743,0.0,0.0,0.0,2019-03-17T21:28:59.433531,17,EyesClosed
-18902.73617538645,-3063.2171706220115,6914.467443760329,2775.3267020376566,22414.843429904395,13129.794672703109,8257.762582035373,11684.664986689686,0.0,0.0,0.0,2019-03-17T21:28:59.441111,17,EyesClosed
-18907.78766963335,-3078.7516330184503,6822.869994982481,2563.36510936798,22412.272979292033,12811.304665959438,8238.942413204004,11521.810176588318,0.008,1.026,0.138,2019-03-17T21:28:59.441781,17,EyesClosed
-18777.6334616701,-2957.8957507486048,6879.732832876782,2492.107748044461,22561.247356086657,12384.475753840894,8361.139400141168,11469.708260262998,0.0,0.0,0.0,2019-03-17T21:28:59.448040,17,EyesClosed
-18757.561595149233,-2930.9618986799596,6976.0464997347,2695.933305732406,22585.409591842843,12659.044582729886,8399.42793839311,11633.63595409822,0.0,0.0,0.0,2019-03-17T21:28:59.455750,17,EyesClosed
-18882.753715843406,-3051.1919321050564,6927.677324733416,2787.843678932629,22441.62081976185,13121.680989465833,8286.59633238272,11710.280085835468,0.0,0.0,0.0,2019-03-17T21:28:59.456542,17,EyesClosed
-18923.031559351868,-3101.393950151676,6816.142119901433,2585.60509510101,22393.5869209274,12902.70094903719,8227.76654097635,11550.778037402397,0.0,0.0,0.0,2019-03-17T21:28:59.462176,17,EyesClosed
-18795.00076711187,-2986.3942249291213,6851.346117418542,2464.5703988755226,22538.381521508876,12414.136518733087,8339.748780697439,11458.711201990987,0.0,0.0,0.0,2019-03-17T21:28:59.462753,17,EyesClosed
-18748.062103755725,-2927.3632678226554,6962.926025739435,2643.4290580068896,22601.94988273977,12568.29650024134,8409.128595486713,11599.974226948527,0.0,0.0,0.0,2019-03-17T21:28:59.470242,17,EyesClosed
-18864.693506323518,-3031.0306586063693,6946.162217397955,2793.1410423685365,22468.331154385945,13083.727727380721,8309.88685010515,11712.045873647437,0.0,0.0,0.0,2019-03-17T21:28:59.470556,17,EyesClosed
-18924.50677448592,-3100.3881216511872,6832.794169520637,2636.455313736834,22385.540292923488,13007.910610188319,8226.648953753585,11581.645796495175,0.0,0.0,0.0,2019-03-17T21:28:59.478281,17,EyesClosed
-18814.178563854526,-2988.182364485546,6838.49386435674,2474.4051664358576,22514.934541575258,12492.367624326662,8324.147263067634,11455.179626367048,0.0,0.0,0.0,2019-03-17T21:28:59.478664,17,EyesClosed
-18733.46641462641,-2897.8142616527393,6953.493589579295,2612.069560536094,22612.119926466934,12504.638732032625,8416.862299068249,11558.690554939576,0.01,1.03,0.138,2019-03-17T21:28:59.485380,17,EyesClosed
-18829.15423263958,-3004.2085652600013,6964.647110062494,2792.7834144572516,22502.015233280094,13021.031084183585,8338.787655685861,11698.50071650752,0.0,0.0,0.0,2019-03-17T21:28:59.485711,17,EyesClosed
-18922.74098667395,-3095.6495518266624,6858.49867564424,2682.298741614669,22394.4362872167,13080.665538390343,8235.76846549135,11609.138442175203,0.0,0.0,0.0,2019-03-17T21:28:59.493076,17,EyesClosed
-18833.31165710827,-3015.1609200431017,6828.301468885121,2479.6131228939444,22487.821875550973,12563.468523438994,8295.581733653753,11449.323469319757,0.0,0.0,0.0,2019-03-17T21:28:59.493808,17,EyesClosed
-18720.52475458679,-2904.1621570780467,6933.42172305843,2561.420507600368,22603.112173451445,12437.762312622346,8400.344359915776,11511.617781116698,0.0,0.0,0.0,2019-03-17T21:28:59.501205,17,EyesClosed
-18800.76751718134,-2960.689718805518,6979.019281747256,2775.5278677377546,22528.144422548346,12942.844682078921,8356.445533805554,11678.808829642396,0.0,0.0,0.0,2019-03-17T21:28:59.502198,17,EyesClosed
-18921.824565151284,-3078.37165336271,6873.586103151572,2716.2957449311907,22389.47419994762,13134.421483805358,8233.577994534731,11629.813805796362,0.0,0.0,0.0,2019-03-17T21:28:59.508188,17,EyesClosed
-18874.863550050683,-3032.438818507054,6810.844756465525,2492.845355611486,22443.230145362635,12662.732620565013,8263.059945471281,11455.023164155862,0.0,0.0,0.0,2019-03-17T21:28:59.515284,17,EyesClosed
-18744.15054847605,-2923.049381142781,6914.445092015874,2534.3525450649913,22593.970309969227,12421.333780447696,8398.176240703611,11490.338920395247,0.0,0.0,0.0,2019-03-17T21:28:59.516178,17,EyesClosed
-18775.28652850229,-2956.1076111921802,6984.607217861083,2759.6134256855757,22554.74299845016,12866.871102675332,8385.61456031973,11670.136352793736,0.0,0.0,0.0,2019-03-17T21:28:59.522832,17,EyesClosed
-18906.98300683296,-3079.042205696369,6894.797908639659,2751.410335470478,22404.3381100104,13167.770286532676,8254.2980616448,11660.279233488945,0.0,0.0,0.0,2019-03-17T21:28:59.523815,17,EyesClosed
-18892.610835148196,-3059.7750019758946,6813.929297200358,2523.422542026346,22427.226296332636,12764.90244447022,8254.074544200248,11484.4604116035,0.012,1.028,0.136,2019-03-17T21:28:59.530712,17,EyesClosed
-18761.98724055138,-2938.3603260946666,6886.818335869114,2491.884230599908,22574.345478337465,12400.16667844852,8378.462002094031,11458.487684546433,0.0,0.0,0.0,2019-03-17T21:28:59.531435,17,EyesClosed
-18750.632554368087,-2942.696564518996,6985.1660114724655,2717.3239251761347,22579.642841773373,12763.248415380529,8406.08875824079,11637.63691635572,0.0,0.0,0.0,2019-03-17T21:28:59.538679,17,EyesClosed
-18888.431058935053,-3068.872161969204,6923.206975842354,2769.962283368383,22428.947380655693,13171.212455178793,8282.774184080861,11678.965291853583,0.0,0.0,0.0,2019-03-17T21:28:59.539307,17,EyesClosed
-18903.518486442386,-3085.7030255440504,6821.506538570708,2551.6304435289435,22410.686005435706,12871.296748077482,8248.553663319786,11506.812156058808,0.0,0.0,0.0,2019-03-17T21:28:59.546057,17,EyesClosed
-18767.865749343127,-2951.5478553232974,6873.004957795734,2468.884285555397,22560.733265964183,12424.463024671439,8370.907112468138,11439.689867459521,0.0,0.0,0.0,2019-03-17T21:28:59.546771,17,EyesClosed
-18735.165147205014,-2913.3487240491777,6975.28654042322,2670.00528216425,22596.85368500396,12661.816199042345,8419.678618869617,11595.481526313011,0.0,0.0,0.0,2019-03-17T21:28:59.554103,17,EyesClosed
-18859.977288243448,-3032.6176324626963,6932.639412002494,2775.103184593104,22451.880270466838,13134.64500124991,8304.88005934716,11676.730117408051,0.0,0.0,0.0,2019-03-17T21:28:59.555066,17,EyesClosed
-18901.328015485768,-3075.980016705992,6825.529852572662,2588.421414902379,22396.984386084605,12958.826179364465,8239.478855070933,11525.252345234436,0.0,0.0,0.0,2019-03-17T21:28:59.561491,17,EyesClosed
-18778.751048892864,-2957.9181024930604,6855.123562231489,2457.7307650721987,22535.60990519642,12458.840007643701,8345.64964123364,11421.02616083934,0.0,0.0,0.0,2019-03-17T21:28:59.562148,17,EyesClosed
-18720.971789475894,-2898.1718895640242,6966.099973452088,2627.1346362989707,22605.593217085985,12577.237198023462,8421.310296214855,11556.880063638695,0.01,1.022,0.136,2019-03-17T21:28:59.567716,17,EyesClosed
-18829.82478497324,-3003.40390245961,6952.398354100986,2784.4685655198773,22478.568253346475,13099.239838032705,8329.019943358891,11682.340405266334,0.0,0.0,0.0,2019-03-17T21:28:59.574946,17,EyesClosed
-18911.676873168573,-3085.0324732103913,6836.124579444478,2637.4611422373227,22387.216673757634,13060.884244547397,8238.473026570444,11564.144380586671,0.0,0.0,0.0,2019-03-17T21:28:59.575800,17,EyesClosed
-18812.636293487107,-2986.3495214402105,6828.480282840763,2459.7424220731764,22503.870428069884,12541.67557259507,8323.521414222887,11427.664628942566,0.0,0.0,0.0,2019-03-17T21:28:59.582926,17,EyesClosed
-18719.071891197193,-2893.6791889285078,6942.004792929268,2590.3213131810803,22611.80700204456,12528.577450344259,8426.294735228388,11530.3708947147,0.0,0.0,0.0,2019-03-17T21:28:59.583601,17,EyesClosed
-18804.3884997831,-2979.7557568258953,6962.031955961223,2784.0215306307714,22511.73824211815,13051.652974087356,8357.496065794952,11682.765088410984,0.0,0.0,0.0,2019-03-17T21:28:59.591125,17,EyesClosed
-18904.010224820402,-3079.824516752305,6857.381088421475,2687.551401561666,22394.168066283237,13146.424370577857,8246.92198597455,11603.818726994841,0.0,0.0,0.0,2019-03-17T21:28:59.591766,17,EyesClosed
-18832.68580826352,-3004.655600149107,6819.606640292006,2480.9318758168074,22478.389439390834,12640.11265517624,8300.297951733823,11444.316678561769,0.0,0.0,0.0,2019-03-17T21:28:59.597724,17,EyesClosed
-18717.775490018787,-2886.6607411695413,6927.319696822131,2559.3194436215695,22607.023728731125,12486.623226001648,8416.415264179142,11506.365121169702,0.0,0.0,0.0,2019-03-17T21:28:59.598365,17,EyesClosed
-18774.72773489091,-2943.501227319387,6973.051365977689,2772.152754325003,22537.26393428611,12975.388822005847,8376.226827648501,11676.685413919142,0.0,0.0,0.0,2019-03-17T21:28:59.605786,17,EyesClosed
-18897.01412880589,-3069.2744933694,6871.686204872872,2724.5211868907436,22397.409069229256,13196.536981646655,8252.44286685501,11638.06159950037,0.016,1.026,0.138,2019-03-17T21:28:59.606485,17,EyesClosed
-18852.109474195182,-3033.399943518632,6807.87197445297,2500.4225969818353,22448.415750076267,12733.8558714218,8276.247474699912,11463.628585771154,0.0,0.0,0.0,2019-03-17T21:28:59.613862,17,EyesClosed
-18724.19044067746,-2908.118415846636,6903.291571532675,2517.2534605566816,22597.792458271084,12451.218062784441,8405.753482073962,11480.83942900174,0.0,0.0,0.0,2019-03-17T21:28:59.614738,17,EyesClosed
-18752.599507880153,-2930.313698090756,6973.0960694666,2738.021640541749,22565.091856132967,12873.6883847342,8398.869144781727,11657.060582287382,0.0,0.0,0.0,2019-03-17T21:28:59.621054,17,EyesClosed
-18882.731364098952,-3055.4834670404753,6893.322693505609,2751.410335470478,22418.553819483976,13211.557353920622,8275.755736321895,11665.755410880496,0.0,0.0,0.0,2019-03-17T21:28:59.621934,17,EyesClosed
-18876.808151818295,-3053.628272250685,6806.687331996838,2525.1883298383154,22427.762738199563,12833.499948203558,8267.150314706601,11488.260208160902,0.0,0.0,0.0,2019-03-17T21:28:59.627352,17,EyesClosed
-18744.5752316207,-2927.564433522753,6878.548190420651,2485.268114241137,22576.89357720537,12452.335650007208,8393.124746456713,11457.057172901294,0.0,0.0,0.0,2019-03-17T21:28:59.628194,17,EyesClosed
-18736.08156872768,-2916.0085816393594,6971.062060721167,2702.504718602266,22581.878016218903,12785.041366224452,8419.008066535958,11627.690390073109,0.0,0.0,0.0,2019-03-17T21:28:59.635728,17,EyesClosed
-18872.11428548268,-3047.9062256701263,6903.783309910693,2771.3257397801567,22427.24864807709,13212.205554509826,8294.195925497523,11679.367623253778,0.0,0.0,0.0,2019-03-17T21:28:59.643230,17,EyesClosed
-18903.74200388694,-3076.695272528562,6793.723320212761,2557.7995249986084,22393.51986569403,12935.692123853223,8247.01139295237,11509.494365393444,0.0,0.0,0.0,2019-03-17T21:28:59.644224,17,EyesClosed
-18772.47020870092,-2944.954090708982,6845.69112607135,2462.514038385634,22544.684713445273,12475.223836329442,8366.056783921336,11438.88520465913,0.012,1.034,0.13,2019-03-17T21:28:59.650413,17,EyesClosed
-18733.332304159678,-2913.6169449826416,6953.381830857019,2658.248264580758,22590.03640294509,12687.69951912159,8422.3384764598,11596.219133880037,0.0,0.0,0.0,2019-03-17T21:28:59.651060,17,EyesClosed
-18855.462235863477,-3037.535016242864,6916.814376928137,2774.5890944706316,22446.91818319776,13172.687670312844,8308.635152415653,11686.49782973502,0.0,0.0,0.0,2019-03-17T21:28:59.657873,17,EyesClosed
-18896.477686938964,-3077.7458045179615,6819.070198425079,2608.2027087453257,22395.01743257254,13038.107816947439,8246.989041207915,11552.610880447732,0.0,0.0,0.0,2019-03-17T21:28:59.658653,17,EyesClosed
-18778.57223493722,-2962.075526961747,6837.197463178332,2460.591788362478,22528.3679399929,12525.76113054289,8348.085981379269,11439.01931512586,0.0,0.0,0.0,2019-03-17T21:28:59.665986,17,EyesClosed
-18718.826022008183,-2878.1447265320694,6950.029069188723,2621.032610062672,22610.33178691051,12606.629741982191,8433.581403920818,11567.564197488333,0.0,0.0,0.0,2019-03-17T21:28:59.666665,17,EyesClosed
-18825.466194804456,-2987.4894604074316,6948.687964521404,2787.6425132325307,22486.726640072662,13127.514794768667,8344.040315632858,11698.925399652171,0.0,0.0,0.0,2019-03-17T21:28:59.674102,17,EyesClosed
-18913.822640636285,-3110.5134618894413,6827.317992129087,2647.385316775479,22381.00288879906,13112.002684116684,8242.272823127845,11582.428107551112,0.0,0.0,0.0,2019-03-17T21:28:59.674963,17,EyesClosed
-18822.67222674754,-3019.653620678618,6812.096454155023,2464.01160526414,22491.867541297383,12589.597712707247,8323.208489800512,11439.868681415162,0.0,0.0,0.0,2019-03-17T21:28:59.680615,17,EyesClosed
-18730.068949469205,-2918.1767008515244,6923.743417709282,2580.687711320843,22604.1850571853,12537.629906848659,8429.42397945213,11534.751836627942,0.0,0.0,0.0,2019-03-17T21:28:59.681258,17,EyesClosed
-18806.355453295168,-2988.696454608018,6950.543159311195,2783.1051091081035,22511.425317695775,13055.519825878124,8368.80604848934,11694.812678672395,0.008,1.038,0.124,2019-03-17T21:28:59.688745,17,EyesClosed
-18914.35908250321,-3099.0917204727793,6841.600756836028,2692.9158202309395,22385.652051645764,13180.331966916558,8253.001660466392,11621.074273714337,0.0,0.0,0.0,2019-03-17T21:28:59.689446,17,EyesClosed
-18845.225136902947,-3032.103542340224,6802.328741828053,2479.1213845159277,22467.526491585555,12683.519742908447,8305.17063202508,11455.961937422984,0.0,0.0,0.0,2019-03-17T21:28:59.695826,17,EyesClosed
-18721.50823134282,-2904.9668198784375,6911.740530936781,2547.0259841711504,22605.637920574896,12503.14116515412,8429.446331196586,11511.349560183235,0.0,0.0,0.0,2019-03-17T21:28:59.702764,17,EyesClosed
-18777.588758181188,-2958.789820526817,6959.237987904309,2763.636739687531,22539.901440131838,12978.227493551673,8391.046034222369,11677.914759864183,0.0,0.0,0.0,2019-03-17T21:28:59.703439,17,EyesClosed
-18894.73425087145,-3076.315292872822,6865.941806547858,2735.719410862853,22400.605368686363,13234.33378152058,8267.06090772878,11651.047963028905,0.0,0.0,0.0,2019-03-17T21:28:59.710225,17,EyesClosed
-18865.54287261282,-3052.0412983943584,6789.901171910903,2503.0824545720166,22431.562534756966,12783.588502834858,8269.899579274605,11463.561530537789,0.0,0.0,0.0,2019-03-17T21:28:59.711035,17,EyesClosed
-18738.719074573408,-2921.6188694976413,6878.548190420651,2505.2729255286367,22575.954803938246,12470.731135693924,8390.576647588807,11462.801571226308,0.0,0.0,0.0,2019-03-17T21:28:59.718335,17,EyesClosed
-18759.70736261694,-2934.895805704094,6958.23215940382,2728.924480548439,22552.530175749085,12872.839018444898,8388.497935354464,11638.240413456013,0.0,0.0,0.0,2019-03-17T21:28:59.719032,17,EyesClosed
-18887.380526945653,-3055.3940600626543,6882.727966633794,2754.025489571749,22404.583979199408,13237.440673999869,8265.11630596117,11658.289928232423,0.0,0.0,0.0,2019-03-17T21:28:59.728473,17,EyesClosed
-18877.2551867074,-3059.5514845313414,6797.836041192537,2534.397248553902,22417.43623226121,12888.865219219353,8257.360250635178,11489.623664572677,0.0,1.038,0.124,2019-03-17T21:28:59.729205,17,EyesClosed
-18734.159318704526,-2942.7189162634513,6866.210027481321,2481.4683176837348,22572.46793180322,12487.293778335308,8384.832249263794,11452.02803039885,0.0,0.0,0.0,2019-03-17T21:28:59.734660,17,EyesClosed
-18731.968847747907,-2934.5828812817194,6957.271034392243,2688.6466370399758,22580.98394644069,12787.47770637008,8412.593115877286,11614.994599222493,0.0,0.0,0.0,2019-03-17T21:28:59.735471,17,EyesClosed
-18876.69639309602,-3056.5116472854197,6897.457766229841,2765.4248792439557,22429.282656822525,13226.622429683499,8289.435003928544,11674.539646451432,0.0,0.0,0.0,2019-03-17T21:28:59.741254,17,EyesClosed
-18910.827506879272,-3088.2287726675004,6795.690273724827,2565.2873593911363,22397.00673782906,12984.083650598963,8245.849102240694,11516.266943963403,0.0,0.0,0.0,2019-03-17T21:28:59.742014,17,EyesClosed
-18781.70147916096,-2961.024994972348,6842.852454525525,2463.4081081638465,22547.009294868625,12512.551249569804,8365.900321710149,11437.186472080526,0.0,0.0,0.0,2019-03-17T21:28:59.749036,17,EyesClosed
-18740.5742693632,-2919.383695052111,6944.977574941823,2645.0383836076717,22592.76331576864,12690.337024967317,8422.964325304547,11580.81878195033,0.0,0.0,0.0,2019-03-17T21:28:59.749797,17,EyesClosed
-18856.4010091306,-3037.8702924096933,6922.402313041964,2783.6862544639416,22456.954116458193,13194.301807201125,8320.369818254689,11688.26361754699,0.0,0.0,0.0,2019-03-17T21:28:59.756069,17,EyesClosed
-18918.963541861005,-3115.2296799695114,6811.694122754828,2618.70802863932,22385.47323769012,13085.135887281405,8245.133846418124,11553.750819414952,0.0,0.0,0.0,2019-03-17T21:28:59.762462,17,EyesClosed
-18813.508011520866,-3020.4582834790094,6819.472529825274,2463.721032586221,22518.332006732468,12572.744497387946,8347.79540870135,11434.50426274589,0.0,0.0,0.0,2019-03-17T21:28:59.763168,17,EyesClosed
-18735.142795460557,-2945.5128843203647,6935.27691784822,2614.4611971928116,22610.86822877744,12628.64621027067,8441.583328435818,11557.260043294436,0.008,1.034,0.126,2019-03-17T21:28:59.770514,17,EyesClosed
-18834.2951338643,-3034.3834202746657,6943.837635974603,2791.419958045478,22499.44478266773,13157.421428849868,8362.70402225304,11699.17126884118,0.0,0.0,0.0,2019-03-17T21:28:59.771400,17,EyesClosed
-18917.60008544923,-3109.0605984998465,6835.319916644087,2670.6311310089986,22400.113630308348,13184.80231580762,8266.077430972748,11599.504840314967,0.0,0.0,0.0,2019-03-17T21:28:59.778539,17,EyesClosed
-18827.746072738897,-3024.816873647794,6809.369541331475,2471.3876809343915,22499.333023945455,12658.30697516286,8331.679800949074,11441.768579693864,0.0,0.0,0.0,2019-03-17T21:28:59.779181,17,EyesClosed
-18729.577211091186,-2934.2699568593453,6918.222536828821,2569.7353565377425,22610.75647005516,12568.452962452528,8434.319011487843,11517.049255019338,0.0,0.0,0.0,2019-03-17T21:28:59.785662,17,EyesClosed
-18806.690729461996,-3001.9733908144703,6952.957147712368,2776.1760683269586,22523.204687023725,13076.843390088487,8375.913903226126,11672.416230728179,0.0,0.0,0.0,2019-03-17T21:28:59.786354,17,EyesClosed
-18913.956751103015,-3104.5231943754193,6851.8602075410145,2707.5562128491656,22397.699641907173,13233.551470464645,8261.383564637134,11611.328913131823,0.0,0.0,0.0,2019-03-17T21:28:59.793046,17,EyesClosed
-18842.54292756831,-3051.303690827333,6808.96720993128,2497.293352758092,22473.650869566307,12748.719781484579,8306.869364603683,11441.45565527149,0.0,0.0,0.0,2019-03-17T21:28:59.793690,17,EyesClosed
-18717.55197257423,-2927.5867852672086,6907.471347745818,2543.6955742473097,22610.80117354407,12530.454996878505,8427.85935734026,11478.134867922648,0.0,0.0,0.0,2019-03-17T21:28:59.801200,17,EyesClosed
-18762.926013818505,-2954.0959541912025,6968.133982197522,2763.5249809652546,22561.672039231307,12995.036005382062,8404.770005317927,11657.082934031838,0.0,0.0,0.0,2019-03-17T21:28:59.801895,17,EyesClosed
-18880.2056169755,-3065.65351076764,6883.97966432329,2751.320928492657,22420.96780788515,13284.267578633737,8287.266884716379,11650.623279884254,0.008,1.034,0.134,2019-03-17T21:28:59.809297,17,EyesClosed
-18857.809169031283,-3041.558330244819,6801.725244727761,2516.2476320561927,22439.296238338502,12851.046067600975,8285.366986437677,11463.628585771154,0.0,0.0,0.0,2019-03-17T21:28:59.810091,17,EyesClosed
-18733.46641462641,-2925.7092387329626,6887.600646925051,2503.6635999278546,22589.701126778262,12517.401578116605,8413.218964722033,11453.16796936607,0.0,0.0,0.0,2019-03-17T21:28:59.815568,17,EyesClosed
-18753.38181893609,-2939.6567272730745,6978.438136391418,2729.706791604375,22583.50969356414,12901.806879258977,8426.00416255047,11630.506709874477,0.0,0.0,0.0,2019-03-17T21:28:59.822796,17,EyesClosed
-18877.92573904106,-3067.4192985796094,6905.482042489296,2768.7329374233414,22431.786052201518,13284.424040844922,8300.11913777818,11660.525102677955,0.0,0.0,0.0,2019-03-17T21:28:59.823442,17,EyesClosed
-18880.652651864606,-3088.631104067696,6804.563916273584,2539.6052050119883,22417.99502587259,12951.360696716392,8270.659538586086,11481.308815635302,0.0,0.0,0.0,2019-03-17T21:28:59.830755,17,EyesClosed
-18760.310859717236,-2975.665387590574,6862.83491406857,2468.884285555397,22571.75267598065,12525.045874720321,8397.058653480846,11428.066960342761,0.0,0.0,0.0,2019-03-17T21:28:59.831510,17,EyesClosed
-18740.551917618744,-2936.7062970049737,6971.084412465622,2689.5854103070988,22605.123830452423,12811.639942126269,8445.360773248765,11600.175392648625,0.0,0.0,0.0,2019-03-17T21:28:59.838785,17,EyesClosed
-18868.91798602557,-3060.8702374542045,6927.118531122033,2789.676521977964,22461.424465349253,13277.897331463973,8330.27164104839,11675.92545460766,0.0,0.0,0.0,2019-03-17T21:28:59.839547,17,EyesClosed
-18911.051024323824,-3111.206365967556,6811.671771010372,2586.007426501206,22405.634511188808,13058.805532313054,8263.909311760583,11511.99776077244,0.0,0.0,0.0,2019-03-17T21:28:59.845579,17,EyesClosed
-18777.946386092473,-2978.63816960313,6849.9826610067685,2466.1573727318496,22552.70898970473,12569.570549675293,8379.55723757234,11420.243849783403,0.014,1.022,0.136,2019-03-17T21:28:59.846232,17,EyesClosed
-18715.406205106523,-2914.3992560385773,6962.993080972801,2649.1511045874486,22617.037310247102,12724.08815909483,8453.966194864059,11567.094810854771,0.0,0.0,0.0,2019-03-17T21:28:59.853468,17,EyesClosed
-18817.352511567176,-3015.07151306528,6955.70641228037,2806.082702408159,22494.54975063202,13248.013049127228,8364.782734487384,11696.086728106347,0.0,0.0,0.0,2019-03-17T21:28:59.854140,17,EyesClosed
-18889.570997902276,-3090.531002346397,6841.712515558304,2640.545682972155,22410.663653691252,13168.284376655147,8279.01909101237,11568.257101566447,0.0,0.0,0.0,2019-03-17T21:28:59.861462,17,EyesClosed
-18781.34385124968,-2984.561381883786,6850.384992406964,2471.7006053567657,22537.17452730829,12652.27200415993,8374.84101949227,11440.27101281536,0.0,0.0,0.0,2019-03-17T21:28:59.861935,17,EyesClosed
-18704.811478234707,-2899.5576977202536,6963.104839695077,2604.447615676834,22633.130566254924,12669.214626457051,8467.489000259518,11550.353354257746,0.0,0.0,0.0,2019-03-17T21:28:59.868171,17,EyesClosed
-18814.670302232542,-3006.8460711057273,6960.75790652727,2776.5336962382435,22511.626483395874,13182.410679150902,8377.433821849087,11682.69803317762,0.0,0.0,0.0,2019-03-17T21:28:59.868810,17,EyesClosed
-18912.16861154659,-3108.0994734882684,6846.5181406161955,2663.2774070832024,22397.92315935173,13236.546604221656,8269.430192641043,11585.15502037466,0.0,0.0,0.0,2019-03-17T21:28:59.875375,17,EyesClosed
-18835.747997253897,-3032.8635016517046,6818.891384469436,2460.8376575514862,22490.39232616333,12716.242696791018,8331.724504437983,11424.02129459635,0.0,0.0,0.0,2019-03-17T21:28:59.876033,17,EyesClosed
-18729.197231435446,-2932.012430669359,6924.995115398779,2549.0152894276725,22609.75064155467,12592.950474375544,8445.070200570846,11493.669330319088,0.0,0.0,0.0,2019-03-17T21:28:59.883243,17,EyesClosed
-18802.421546271034,-2990.2387249754343,6959.081525693122,2758.7864111407293,22526.93742834776,13092.199038529283,8394.331740657299,11657.261747987479,0.012,1.028,0.134,2019-03-17T21:28:59.891080,17,EyesClosed
-18922.830393651773,-3117.1519299926676,6852.530759874673,2697.29676214418,22390.770601126027,13280.154857653959,8273.475858387454,11604.19870665058,0.0,0.0,0.0,2019-03-17T21:28:59.891935,17,EyesClosed
-18859.19497718751,-3065.340586345266,6805.502689540707,2481.5130211726455,22462.787921761028,12810.254133970038,8315.519489707887,11436.78414068033,0.0,0.0,0.0,2019-03-17T21:28:59.897766,17,EyesClosed
-18737.489728628367,-2932.146541136091,6903.850365144059,2516.4487977562903,22607.269597920134,12562.417991449594,8438.923470845637,11464.50030380491,0.0,0.0,0.0,2019-03-17T21:28:59.898751,17,EyesClosed
-18784.093115817683,-2977.989969013926,6967.66459556396,2736.5911288966095,22560.353286308444,13000.221610095694,8415.834118823304,11634.977058765538,0.0,0.0,0.0,2019-03-17T21:28:59.905932,17,EyesClosed
-18910.827506879272,-3106.5795548653073,6887.444184713863,2740.8826638320284,22416.1398310828,13308.474517878834,8292.676006874563,11632.496015130999,0.0,0.0,0.0,2019-03-17T21:28:59.906685,17,EyesClosed
-18878.328070441257,-3078.1928394070674,6816.589154790539,2523.914280404363,22445.35356108589,12911.663998563767,8299.940323822537,11460.74521073642,0.0,0.0,0.0,2019-03-17T21:28:59.913807,17,EyesClosed
-18754.208833480934,-2958.700413548996,6889.187620781377,2492.9347625893074,22590.66225178984,12545.832997063757,8422.785511348906,11436.02418136885,0.0,0.0,0.0,2019-03-17T21:28:59.914452,17,EyesClosed
-18757.29337421577,-2956.2864251478227,6979.756889314282,2711.557175106666,22586.19190289878,12897.560047812469,8438.699953401083,11607.953799719073,0.0,0.0,0.0,2019-03-17T21:28:59.920950,17,EyesClosed
-18875.89173029563,-3067.754574746439,6924.32456306512,2777.4277660164557,22443.811290718473,13314.285971437213,8322.64969618913,11657.977003810049,0.0,0.0,0.0,2019-03-17T21:28:59.921742,17,EyesClosed
-18892.633186892654,-3088.8322697677936,6819.070198425079,2563.476868090256,22423.940589897706,13011.822165467998,8286.484573660442,11486.136792437648,0.012,1.028,0.14200000000000002,2019-03-17T21:28:59.928376,17,EyesClosed
-18762.724848118407,-2961.986119983926,6875.59776015255,2484.910486329852,22578.346440594967,12566.664822896102,8410.536755387397,11423.015466095861,0.0,0.0,0.0,2019-03-17T21:28:59.929063,17,EyesClosed
-18735.925106516494,-2923.8093404542615,6980.360386414574,2690.188907407392,22613.259865434156,12809.58358163638,8455.62022395375,11578.248331337969,0.0,0.0,0.0,2019-03-17T21:28:59.936340,17,EyesClosed
-18856.937450997528,-3040.3736877886877,6943.703525507871,2805.725074496874,22472.622689321364,13292.671834548932,8343.615632488207,11663.900216090706,0.0,0.0,0.0,2019-03-17T21:28:59.936977,17,EyesClosed
-18895.963596816495,-3085.814784266327,6842.181902191866,2626.844063621052,22423.448851519686,13123.02209413315,8285.92578004906,11520.379664943179,0.0,0.0,0.0,2019-03-17T21:28:59.943424,17,EyesClosed
-18788.407002497555,-2992.0715680207695,6858.029289010678,2479.7695851051312,22549.89266990336,12607.724977460502,8382.66413005163,11403.54709667529,0.0,0.0,0.0,2019-03-17T21:28:59.950491,17,EyesClosed
-18725.889173256062,-2926.3350875777114,6973.587807844617,2649.754601687742,22623.116984738946,12725.026932361954,8461.34227053431,11538.350467485247,0.0,0.0,0.0,2019-03-17T21:28:59.951362,17,EyesClosed
-18836.172680398548,-3032.9082051406153,6968.066926964156,2806.6191442750865,22499.02009952308,13245.107322348038,8371.421202590609,11662.73792537903,0.0,0.0,0.0,2019-03-17T21:28:59.957841,17,EyesClosed
-18910.447527223532,-3103.427958897109,6853.4471813973405,2658.6282442364986,22409.21079030166,13199.867391570497,8280.695471846519,11543.536072198876,0.0,0.0,0.0,2019-03-17T21:28:59.958567,17,EyesClosed
-18811.272837075336,-3009.148300784624,6847.389858649953,2477.623817637422,22528.41264348181,12675.18254222662,8366.123839154701,11407.078672299227,0.0,0.0,0.0,2019-03-17T21:28:59.967255,17,EyesClosed
-18722.80463252123,-2917.461445028954,6968.223389175343,2608.1133017675047,22637.869136079447,12666.912396778154,8471.020575883458,11513.025941017384,0.008,1.02,0.14400000000000002,2019-03-17T21:28:59.967989,17,EyesClosed
-18812.122203364637,-3004.990876315937,6983.489630638317,2798.84073720464,22528.59145743745,13185.070536741083,8393.95176100156,11657.977003810049,0.0,0.0,0.0,2019-03-17T21:28:59.973951,17,EyesClosed
-18918.248286038433,-3114.089741002291,6868.445201926852,2697.028541210716,22404.67338617723,13269.694241248875,8277.789745067328,11572.548636501866,0.0,0.0,0.0,2019-03-17T21:28:59.974765,17,EyesClosed
-18849.695485794007,-3052.7118507280175,6832.68241079836,2487.0562537975616,22490.906416285805,12754.642993765236,8333.780864927872,11409.06797755575,0.0,0.0,0.0,2019-03-17T21:28:59.980619,17,EyesClosed
-18727.967885490405,-2938.1144569056582,6941.624813273527,2564.5497518241114,22620.837106804505,12606.003893137444,8453.116828574757,11476.860818488696,0.0,0.0,0.0,2019-03-17T21:28:59.981267,17,EyesClosed
-18792.273854288323,-2986.7742045848618,6990.284560952731,2777.606579972098,22549.93737339227,13097.697567665287,8411.028493765414,11647.225814727046,0.0,0.0,0.0,2019-03-17T21:28:59.988666,17,EyesClosed
-18909.73227140096,-3102.7350548189947,6895.580219695595,2730.6679166159533,22412.92117988124,13318.599858117088,8289.613817884185,11611.306561387368,0.0,0.0,0.0,2019-03-17T21:28:59.989498,17,EyesClosed
