eeg1,eeg2,eeg3,eeg4,eeg5,eeg6,eeg7,eeg8,accx,accy,accz,iso_utc,session_id,command_name
0.0,0.0,0.0,0.0,0.0,0.0,0.0,0.0,0.016,1.026,0.192,2019-03-17T21:30:15.035709,19,EyesClosed
-21624.99983608721,-8537.896995293737,7059.73143097537,4062.4742582409694,21445.58238334446,16340.198080563317,5400.583791802382,11548.744028656964,0.0,0.0,0.0,2019-03-17T21:30:15.045274,19,EyesClosed
-21690.669261296902,-8619.65967651125,6957.271034392243,3914.7739308803,21367.91007136227,16267.130227938918,5316.116549505777,11430.324486532747,0.0,0.0,0.0,2019-03-17T21:30:15.051226,19,EyesClosed
-21601.821077087054,-8537.628774360273,6947.548025554183,3723.7782745097015,21483.78151461858,15767.255814940432,5394.235896377075,11275.873932346574,0.0,0.0,0.0,2019-03-17T21:30:15.051748,19,EyesClosed
-21525.892201172377,-8459.263558299966,7043.369954034085,3844.9917846908315,21574.686059318312,15769.133361474678,5481.27358928604,11369.080706725206,0.0,0.0,0.0,2019-03-17T21:30:15.058101,19,EyesClosed
-21607.721937623257,-8538.008754016013,7055.596358251138,4043.743496387422,21472.67269762429,16260.000021457676,5408.11632968382,11528.225127246991,0.0,0.0,0.0,2019-03-17T21:30:15.058510,19,EyesClosed
-21695.318424143607,-8636.244670897087,6952.487761078806,3943.004184127353,21363.99851608259,16312.638379649923,5302.638447599226,11448.384696052635,0.0,0.0,0.0,2019-03-17T21:30:15.065565,19,EyesClosed
-21633.694664680323,-8580.41001324773,6916.792025183681,3715.597536039059,21446.521156611583,15815.89321087518,5350.292366777941,11266.240330486338,0.0,0.0,0.0,2019-03-17T21:30:15.065968,19,EyesClosed
-21527.367416306428,-8472.451087528598,7020.81704387868,3791.3252462536393,21569.41104762686,15699.284160051842,5461.894626843289,11321.00210440184,0.016,1.024,0.188,2019-03-17T21:30:15.073732,19,EyesClosed
-21579.17875995383,-8521.423759630175,7071.488448558861,4023.6269263776458,21502.668738683315,16174.258729727118,5426.712981070636,11506.901563036628,0.0,0.0,0.0,2019-03-17T21:30:15.074229,19,EyesClosed
-21686.48948508376,-8636.311726130454,6980.896828281502,3985.852478248177,21372.201606297687,16356.00076389322,5309.679247102648,11476.793763255331,0.0,0.0,0.0,2019-03-17T21:30:15.081170,19,EyesClosed
-21649.564403243592,-8593.619894220818,6925.6433159879825,3758.1329057375083,21430.941990726235,15910.888124810235,5340.032916072955,11295.387005256058,0.0,0.0,0.0,2019-03-17T21:30:15.081977,19,EyesClosed
-21541.65018101337,-8471.892293917215,7005.662561137982,3765.4419261743938,21563.197262668284,15669.601043415196,5455.859655840356,11301.556086725723,0.0,0.0,0.0,2019-03-17T21:30:15.088497,19,EyesClosed
-21563.264317901652,-8489.01373016998,7075.578817794182,4000.9846092444195,21529.7814047076,16092.13842059832,5449.757629604057,11494.585751841754,0.0,0.0,0.0,2019-03-17T21:30:15.089218,19,EyesClosed
-21672.921976199388,-8606.852126938358,7009.931744328946,4031.3382782147264,21396.386193798327,16394.937502734363,5336.903671849212,11522.681894622076,0.0,0.0,0.0,2019-03-17T21:30:15.096505,19,EyesClosed
-21660.159130115408,-8603.722882714615,6934.248737603276,3806.055045849687,21414.424051573762,16020.50107961906,5333.014468313989,11341.319840111713,0.0,0.0,0.0,2019-03-17T21:30:15.097125,19,EyesClosed
-21536.375169321916,-8478.664872487172,7004.455566937396,3761.083336005609,21560.69386728929,15682.967386599468,5453.60212965037,11302.561915226212,0.0,0.0,0.0,2019-03-17T21:30:15.103401,19,EyesClosed
-21534.497622787672,-8475.669738730161,7085.0112539543225,3982.4103096020594,21552.826053241024,16017.081262717398,5464.822705366934,11477.799591755818,0.0,0.0,0.0,2019-03-17T21:30:15.110355,19,EyesClosed
-21652.04544687813,-8590.580056974895,7030.3612387610965,4063.904769886109,21413.1052986509,16403.051185971643,5348.39246849924,11546.039467577872,0.016,1.024,0.186,2019-03-17T21:30:15.110708,19,EyesClosed
-21668.652793008423,-8609.824908950915,6936.170987626432,3851.8090667497004,21395.693289720213,16121.9556477017,5312.540270392928,11378.557846374255,0.0,0.0,0.0,2019-03-17T21:30:15.117850,19,EyesClosed
-21559.352762621973,-8500.770747753471,6968.581017086628,3730.4167426129275,21527.16625060633,15684.06262207778,5413.883079753289,11280.456039959912,0.0,0.0,0.0,2019-03-17T21:30:15.118206,19,EyesClosed
-21525.042834883076,-8463.91272114667,7063.0171374103,3924.876919374099,21562.526710334627,15907.870639308769,5460.911150087256,11434.057227856783,0.0,0.0,0.0,2019-03-17T21:30:15.125896,19,EyesClosed
-21632.957057113297,-8567.535408441474,7031.970564361878,4054.6287959371566,21427.544525569025,16357.766551705188,5350.694698178137,11537.612859918221,0.0,0.0,0.0,2019-03-17T21:30:15.126297,19,EyesClosed
-21677.325269857083,-8616.686894498695,6926.604440999561,3869.846924525133,21371.687516175214,16189.167343278808,5281.8513252557905,11389.197276734982,0.0,0.0,0.0,2019-03-17T21:30:15.135606,19,EyesClosed
-21576.004812241175,-8517.48985260604,6932.974688169324,3702.521765532704,21493.392764734363,15699.39591877412,5371.3030065659295,11251.734048334843,0.0,0.0,0.0,2019-03-17T21:30:15.136431,19,EyesClosed
-21518.002035379654,-8454.502636730986,7033.803407407214,3861.174447676474,21562.92904173482,15801.789260123882,5445.644908624281,11376.367375417636,0.0,0.0,0.0,2019-03-17T21:30:15.141530,19,EyesClosed
-21620.931818596342,-8550.123399510789,7033.266965540286,4036.8815108396425,21444.10716821041,16289.303158438583,5356.1038203363205,11521.005513787928,0.0,0.0,0.0,2019-03-17T21:30:15.142103,19,EyesClosed
-21687.89764498444,-8621.447816067674,6939.188473127899,3906.2579162428283,21364.22203352714,16253.048628932076,5273.134144918221,11416.108777059171,0.0,0.0,0.0,2019-03-17T21:30:15.149052,19,EyesClosed
-21596.121382250953,-8538.50049239403,6929.264298589743,3710.791910981168,21474.796113347544,15754.82824502328,5351.7005266786255,11256.874949559564,0.016,1.02,0.18,2019-03-17T21:30:15.149908,19,EyesClosed
-21511.564732976527,-8453.943843119603,7029.020134093778,3823.4670547803707,21569.41104762686,15730.77776798937,5445.0861150128985,11343.91264246853,0.0,0.0,0.0,2019-03-17T21:30:15.156718,19,EyesClosed
-21590.71226009277,-8525.558832354407,7050.701326215426,4032.612327648679,21470.593985389947,16218.761052937634,5377.673253735692,11514.299990451336,0.0,0.0,0.0,2019-03-17T21:30:15.157177,19,EyesClosed
-21686.71300252831,-8618.273868355021,6951.593691300594,3950.1790940975065,21356.80125436798,16305.686987124323,5270.787211750414,11451.044553642816,0.0,0.0,0.0,2019-03-17T21:30:15.163874,19,EyesClosed
-21613.71220513728,-8549.855178577325,6919.854214174058,3737.7704665387237,21444.598906588424,15834.623972728727,5329.058209545399,11282.132420794062,0.0,0.0,0.0,2019-03-17T21:30:15.170177,19,EyesClosed
-21508.837820152978,-8456.223721054044,7014.804424620203,3795.728539911335,21567.667611559347,15688.644729691117,5440.660469610747,11327.394703316058,0.0,0.0,0.0,2019-03-17T21:30:15.170801,19,EyesClosed
-21556.871718987433,-8505.77753851146,7068.985053179867,4026.1750252455504,21506.669700940813,16155.013877751098,5407.02109420551,11515.641095118654,0.0,0.0,0.0,2019-03-17T21:30:15.178262,19,EyesClosed
-21669.524511042182,-8614.697589242172,6982.841430049113,4003.8232807902436,21372.626289442338,16362.639231996445,5288.042758469911,11498.542010610345,0.0,0.0,0.0,2019-03-17T21:30:15.179040,19,EyesClosed
-21639.707283938802,-8588.03195810699,6915.249754816265,3770.560475654659,21414.8040312295,15925.819090106379,5305.365360422774,11312.821365931197,0.0,0.0,0.0,2019-03-17T21:30:15.186196,19,EyesClosed
-21521.712424959234,-8470.640596227717,6991.916238297968,3766.4701064193378,21555.195338153284,15660.727400866439,5428.702286327158,11311.167336841505,0.0,0.0,0.0,2019-03-17T21:30:15.186758,19,EyesClosed
-21535.816375710532,-8481.235323099532,7062.480695543372,3999.799966788288,21530.340198318983,16064.556367940471,5428.545824115971,11501.80536530082,0.012,1.024,0.17400000000000002,2019-03-17T21:30:15.192917,19,EyesClosed
-21656.42638879137,-8598.470222767619,6988.831697563136,4034.2440049939164,21386.104391348887,16380.565331049602,5303.197241210609,11530.057970292328,0.0,0.0,0.0,2019-03-17T21:30:15.193409,19,EyesClosed
-21663.131912127963,-8602.381778047298,6899.737644164282,3800.5118132247703,21390.932368151232,16021.685722075192,5283.818278767858,11342.683296523488,0.0,0.0,0.0,2019-03-17T21:30:15.201027,19,EyesClosed
-21542.052512413564,-8481.212971355078,6955.326432624631,3736.5858240825924,21535.59285826598,15656.86054907567,5401.589620302871,11286.401603985025,0.0,0.0,0.0,2019-03-17T21:30:15.201719,19,EyesClosed
-21523.433509282295,-8460.828180411838,7042.542939489239,3958.739812223889,21544.69001825929,15971.573111006393,5429.641059594281,11461.952204937006,0.0,0.0,0.0,2019-03-17T21:30:15.209017,19,EyesClosed
-21633.89583038042,-8569.010623575525,6995.716034855371,4056.3051767713046,21404.23165610214,16380.09594441604,5313.635505871237,11539.557461685832,0.0,0.0,0.0,2019-03-17T21:30:15.209514,19,EyesClosed
-21657.745141714233,-8600.593638490873,6897.0777865741,3847.8975114700215,21369.76526615206,16116.054787165498,5262.315900601852,11367.560788102244,0.0,0.0,0.0,2019-03-17T21:30:15.216113,19,EyesClosed
-21551.46259682925,-8495.249866873011,6928.213766600343,3721.9454314643663,21502.624035194403,15665.24245324641,5363.904579151223,11261.501760661813,0.0,0.0,0.0,2019-03-17T21:30:15.216616,19,EyesClosed
-21511.34121553197,-8445.628994182229,7032.909337629001,3913.745750635356,21548.69098051679,15864.396496343195,5421.035637978988,11415.773500892343,0.0,0.0,0.0,2019-03-17T21:30:15.222554,19,EyesClosed
-21624.262228520183,-8556.001908302535,7005.997837304812,4051.23133077995,21408.85846720439,16321.869650109966,5315.557755894394,11528.538051669366,0.0,0.0,0.0,2019-03-17T21:30:15.231204,19,EyesClosed
-21673.97250818879,-8617.223336365621,6905.347932022564,3881.4474798974375,21348.575812408428,16184.58523566547,5249.173074862132,11394.87461982663,0.014,1.026,0.176,2019-03-17T21:30:15.231874,19,EyesClosed
-21568.405219126373,-8513.421835115176,6917.373170539519,3717.7433035067684,21479.601738405436,15703.083956609245,5349.219483044086,11264.809818841199,0.0,0.0,0.0,2019-03-17T21:30:15.239021,19,EyesClosed
-21505.999148607156,-8449.875825628736,7021.174671789965,3870.6739390699795,21559.64333529989,15781.873855814203,5431.608013106348,11388.97375929043,0.0,0.0,0.0,2019-03-17T21:30:15.239552,19,EyesClosed
-21600.927007308845,-8542.099123251333,7027.5449189597275,4065.0447088533297,21448.979848501665,16276.205036187774,5354.5168464799945,11546.754723400441,0.0,0.0,0.0,2019-03-17T21:30:15.245648,19,EyesClosed
-21672.43023782137,-8624.018266680034,6930.583051512605,3950.939053408987,21362.299783503986,16271.287652407605,5269.311996616363,11454.710239733487,0.0,0.0,0.0,2019-03-17T21:30:15.246070,19,EyesClosed
-21597.75305959619,-8553.699678623638,6903.000998854756,3736.0940857045757,21456.400627660827,15763.098390471745,5330.868700846279,11279.405507970514,0.0,0.0,0.0,2019-03-17T21:30:15.253154,19,EyesClosed
-21505.663872440324,-8459.330613533331,7003.628552392549,3836.364011331083,21564.091332446496,15709.34244505673,5433.664373596236,11359.290642653781,0.0,0.0,0.0,2019-03-17T21:30:15.253702,19,EyesClosed
-21574.663707573858,-8527.34697191083,7037.804369664714,4056.6851564270446,21481.859264595423,16199.270331772606,5382.9706171716,11540.76445588642,0.0,0.0,0.0,2019-03-17T21:30:15.261271,19,EyesClosed
-21672.67610701038,-8624.621763780327,6946.273976120231,3995.329617897227,21370.458170230173,16319.99210357572,5280.71138628857,11490.204809928515,0.0,0.0,0.0,2019-03-17T21:30:15.262017,19,EyesClosed
-21620.775356385155,-8576.118478312312,6894.7085016618375,3766.4477546748826,21438.921563496777,15840.055446631366,5319.871642574268,11303.344226282148,0.0,0.0,0.0,2019-03-17T21:30:15.269197,19,EyesClosed
-21506.893218385365,-8457.497770487997,6983.132002727032,3806.3456185276054,21561.94556497879,15657.419342687053,5427.718809571124,11328.065255649717,0.016,1.028,0.17200000000000001,2019-03-17T21:30:15.269655,19,EyesClosed
-21550.07678867302,-8494.48990756153,7042.945270889434,4040.4130864635813,21508.390785263873,16111.271513852063,5402.550745314449,11516.758682341419,0.0,0.0,0.0,2019-03-17T21:30:15.275728,19,EyesClosed
-21670.642098264947,-8621.80544397896,6960.087354193611,4027.0467432793075,21370.94990860819,16351.373952790971,5280.890200244213,11509.89669679364,0.0,0.0,0.0,2019-03-17T21:30:15.276238,19,EyesClosed
-21643.820004918576,-8595.60919947734,6894.842612128569,3794.0968625660976,21413.19470562872,15940.280668768964,5294.167136450665,11328.556994027735,0.0,0.0,0.0,2019-03-17T21:30:15.282986,19,EyesClosed
-21527.814451195532,-8476.273235830455,6968.111630453066,3769.889923321,21550.724989262224,15646.802264070782,5409.770358773513,11309.490956007357,0.0,0.0,0.0,2019-03-17T21:30:15.283962,19,EyesClosed
-21534.78819546559,-8486.666797002174,7045.471018012884,3998.5035656098803,21529.759052963145,16029.732350079103,5413.033713463988,11497.491478620945,0.0,0.0,0.0,2019-03-17T21:30:15.290884,19,EyesClosed
-21656.068760880087,-8617.268039854533,6972.336110155119,4034.1993015050057,21382.438705258217,16364.00268840822,5287.707482303082,11534.260098249924,0.0,0.0,0.0,2019-03-17T21:30:15.300340,19,EyesClosed
-21659.890909181944,-8620.598449778372,6885.544286435162,3810.368932529561,21389.680670461737,16027.452472144661,5269.244941382997,11356.988412974884,0.0,0.0,0.0,2019-03-17T21:30:15.301111,19,EyesClosed
-21550.255602628662,-8510.851384502816,6933.444074802885,3729.3438588790727,21529.624942496415,15637.481586632919,5384.311721838918,11289.195572041937,0.0,0.0,0.0,2019-03-17T21:30:15.306506,19,EyesClosed
-21536.21870711073,-8495.54043955093,7023.208680535398,3941.193692826473,21546.232288626707,15921.43814819314,5421.393265890273,11461.102838647705,0.0,0.0,0.0,2019-03-17T21:30:15.307060,19,EyesClosed
-21650.34671429953,-8611.367179318331,6983.2884649382195,4046.8503888667096,21406.33272008094,16344.959002132298,5310.483909903039,11549.99572634646,0.012,1.026,0.178,2019-03-17T21:30:15.313646,19,EyesClosed
-21686.824761250587,-8651.488560615608,6881.051585799645,3841.974299189365,21364.311440504964,16112.411452819284,5255.766839476448,11386.760936589353,0.0,0.0,0.0,2019-03-17T21:30:15.314260,19,EyesClosed
-21577.301213419585,-8544.446056419141,6905.906725633947,3705.539251034171,21498.488962470172,15654.468912418952,5358.830733159868,11274.08579279015,0.0,0.0,0.0,2019-03-17T21:30:15.321559,19,EyesClosed
-21530.295494830072,-8490.041910414924,7006.221354749365,3888.398872423038,21553.138977663395,15824.56568772384,5423.717847313625,11418.120434060149,0.0,0.0,0.0,2019-03-17T21:30:15.322115,19,EyesClosed
-21633.51585072468,-8589.350711029854,6991.580962131138,4049.3090807567933,21429.936162225746,16301.551914400092,5332.2098055135975,11549.57104320181,0.0,0.0,0.0,2019-03-17T21:30:15.328241,19,EyesClosed
-21689.663432796413,-8657.769400807549,6882.593856167061,3887.616561367102,21355.99659156759,16190.173171779297,5250.2683103404415,11418.567468949255,0.0,0.0,0.0,2019-03-17T21:30:15.328808,19,EyesClosed
-21599.407088685883,-8572.229274777088,6876.558885164129,3701.2924195876626,21468.62703187788,15690.075241336257,5330.622831657271,11268.319042720681,0.0,0.0,0.0,2019-03-17T21:30:15.336102,19,EyesClosed
-21524.215820338228,-8480.229494599043,6987.959979529379,3850.5126655712925,21561.431474856316,15744.747608273938,5425.505986870049,11385.665701111044,0.0,0.0,0.0,2019-03-17T21:30:15.336557,19,EyesClosed
-21607.073737034054,-8558.1700275147,7005.506098926795,4051.7677726468773,21459.99925851813,16246.186643384295,5356.8637796478015,11551.76151415843,0.0,0.0,0.0,2019-03-17T21:30:15.346365,19,EyesClosed
-21690.95983397482,-8653.209644938666,6903.358626766041,3939.7408294368784,21358.567042179948,16268.180759928318,5257.174999377132,11464.74617299392,0.0,0.0,0.0,2019-03-17T21:30:15.347056,19,EyesClosed
-21618.696644150812,-8587.719033684616,6873.586103151572,3724.1359024209864,21449.829214790967,15771.904977787135,5318.418779184673,11296.90692387902,0.006,1.022,0.182,2019-03-17T21:30:15.352520,19,EyesClosed
-21526.16042210584,-8492.96998893857,6970.19034268741,3805.0939208381083,21557.20699515426,15680.709860409483,5418.353428644351,11362.352831644159,0.0,0.0,0.0,2019-03-17T21:30:15.358553,19,EyesClosed
-21585.012565256664,-8550.190454744155,7008.747101872815,4027.22555723495,21477.72419187119,16164.982755778165,5367.68202396417,11541.166787286615,0.0,0.0,0.0,2019-03-17T21:30:15.359298,19,EyesClosed
-21685.8189327501,-8656.204778695677,6922.782292697703,3980.5104113233583,21361.69628640369,16319.746234386712,5259.633691267216,11503.124118223683,0.0,0.0,0.0,2019-03-17T21:30:15.365894,19,EyesClosed
-21637.717978682278,-8612.663580496739,6874.1225450185,3752.992004512788,21423.18593540024,15859.792036985404,5292.960142250078,11318.878688678586,0.0,0.0,0.0,2019-03-17T21:30:15.366582,19,EyesClosed
-21528.552058762558,-8498.893201219225,6954.007679701767,3774.404975700972,21546.992247938186,15647.718685593449,5399.4215010907055,11329.495767294857,0.0,0.0,0.0,2019-03-17T21:30:15.374061,19,EyesClosed
-21555.262393386653,-8517.48985260604,7016.167881031976,4011.199356460495,21502.55697996104,16085.388193772817,5379.461393292117,11517.585696886266,0.0,0.0,0.0,2019-03-17T21:30:15.374869,19,EyesClosed
-21667.356391830017,-8635.238842396599,6940.194301628388,4020.989420531919,21367.105408561874,16353.18444409185,5258.873731955735,11523.866537078207,0.0,0.0,0.0,2019-03-17T21:30:15.381190,19,EyesClosed
-21659.421522548382,-8632.199005150676,6861.650271612439,3785.9608275843657,21391.37940304034,15946.226232794075,5257.286758099408,11330.948630684452,0.0,0.0,0.0,2019-03-17T21:30:15.381884,19,EyesClosed
-21541.873698457923,-8516.036989216445,6927.476159033318,3746.9346817653995,21527.725044217714,15620.941295735991,5372.264131577508,11294.7164529224,0.0,0.0,0.0,2019-03-17T21:30:15.388762,19,EyesClosed
-21544.46650081474,-8509.39852111322,7008.970619317368,3973.5590187977577,21516.88444815689,15979.597387265849,5385.4516608061385,11476.078507432761,0.008,1.016,0.184,2019-03-17T21:30:15.389600,19,EyesClosed
-21654.41473179039,-8619.57026953343,6956.511075080762,4043.4082202205923,21382.729277936134,16347.462397511292,5279.504392087983,11535.869423850707,0.0,0.0,0.0,2019-03-17T21:30:15.396661,19,EyesClosed
-21671.782037232166,-8641.452627355175,6870.255693227732,3827.5127205267813,21378.035411600522,16037.55546063846,5256.191522621099,11363.5821775892,0.0,0.0,0.0,2019-03-17T21:30:15.397299,19,EyesClosed
-21564.292498146595,-8533.381942913764,6913.014580370735,3724.046495443165,21516.146840589863,15622.215345169943,5368.531390253472,11283.361766739103,0.0,0.0,0.0,2019-03-17T21:30:15.406204,19,EyesClosed
-21530.362550063437,-8505.375207111265,7007.450700694407,3929.7943031542663,21547.282820616107,15881.42852561814,5417.369951888318,11452.206844354492,0.0,0.0,0.0,2019-03-17T21:30:15.406960,19,EyesClosed
-21643.99881887422,-8613.401188063764,6968.402203130985,4048.9514528455084,21410.087813149432,16319.388606475426,5308.71812209107,11551.158017058136,0.0,0.0,0.0,2019-03-17T21:30:15.412355,19,EyesClosed
-21682.77909550418,-8652.650851327284,6867.819353082104,3859.229845908862,21367.66420217326,16125.353112858906,5255.319804587341,11401.155460018572,0.0,0.0,0.0,2019-03-17T21:30:15.418432,19,EyesClosed
-21583.447943144794,-8553.699678623638,6878.145859020456,3702.0300271546876,21494.15272404584,15647.67398210454,5350.20295980012,11276.835057358154,0.0,0.0,0.0,2019-03-17T21:30:15.419418,19,EyesClosed
-21525.892201172377,-8495.048701172913,6981.254456192787,3874.227866438373,21556.60349805397,15783.483181414984,5418.867518766823,11414.991189836406,0.0,0.0,0.0,2019-03-17T21:30:15.426217,19,EyesClosed
-21624.46339422028,-8592.055272108946,6972.3137584106635,4040.457789952492,21431.05374944851,16267.644318061391,5321.928003064157,11553.370839759213,0.0,0.0,0.0,2019-03-17T21:30:15.426942,19,EyesClosed
-21680.7674385032,-8663.826723554936,6874.904856074436,3894.7020643594346,21355.594260167392,16199.113869561419,5237.728981701014,11438.080541858739,0.006,1.014,0.188,2019-03-17T21:30:15.434035,19,EyesClosed
-21587.78418156912,-8575.492629467562,6867.081745515078,3704.891050444967,21465.900119054335,15701.452279264007,5314.373113438262,11283.60763592811,0.0,0.0,0.0,2019-03-17T21:30:15.434686,19,EyesClosed
-21514.828087667,-8490.82422147086,6967.865761264058,3832.1842351179407,21554.70359977527,15707.196677589021,5401.187288902675,11378.759012074353,0.0,0.0,0.0,2019-03-17T21:30:15.440870,19,EyesClosed
-21603.22923698774,-8571.491667210063,6986.685930095427,4035.5180544278687,21449.426883390774,16198.555075950037,5327.448883944618,11541.032676819883,0.0,0.0,0.0,2019-03-17T21:30:15.441741,19,EyesClosed
-21691.093944441553,-8655.578929850928,6897.323655763109,3942.914777149532,21345.31245771795,16259.731800524212,5228.497711240972,11466.64607127262,0.0,0.0,0.0,2019-03-17T21:30:15.448922,19,EyesClosed
-21616.886152849933,-8585.573266216907,6869.227512982788,3729.7461902792684,21436.015836717586,15771.569701620307,5287.23809566952,11293.151830810528,0.0,0.0,0.0,2019-03-17T21:30:15.449633,19,EyesClosed
-21523.142936604374,-8498.423814585663,6955.773467513736,3794.1639177994634,21542.298381602573,15644.254165202878,5385.406957317228,11335.597793531155,0.0,0.0,0.0,2019-03-17T21:30:15.456865,19,EyesClosed
-21576.295384919096,-8549.765771599505,6998.040616278722,4020.5423856428133,21470.39281968985,16114.579572031447,5344.659727175203,11514.858784062719,0.0,0.0,0.0,2019-03-17T21:30:15.457505,19,EyesClosed
-21671.84909246553,-8643.866615756348,6921.2400223302875,3995.55313534178,21354.834300855913,16303.56357140107,5242.713420714548,11493.26699891889,0.0,0.0,0.0,2019-03-17T21:30:15.464124,19,EyesClosed
-21626.676216921358,-8606.650961238262,6867.148800748444,3766.5818651416143,21412.166525383775,15851.499539792483,5273.402365851684,11307.90398215103,0.0,0.0,0.0,2019-03-17T21:30:15.465094,19,EyesClosed
-21517.39853827936,-8498.334407607843,6943.301194107676,3772.1027460220753,21538.006846667155,15602.27758911581,5380.936608426167,11307.166374584005,0.012,1.018,0.188,2019-03-17T21:30:15.472225,19,EyesClosed
-21542.745416491678,-8523.390713142242,7005.684912882437,4000.3587603996707,21495.694994413258,16014.9801987386,5362.317605294897,11488.774298283375,0.0,0.0,0.0,2019-03-17T21:30:15.478337,19,EyesClosed
-21647.19511833133,-8620.553746289463,6937.154464382465,4023.3363536997267,21361.673934659237,16311.051405793598,5248.122542872732,11509.203792715525,0.0,0.0,0.0,2019-03-17T21:30:15.479215,19,EyesClosed
-21643.417673518383,-8615.971638676125,6863.058431513123,3792.9569235988765,21381.119952335353,15931.921116342679,5247.474342283528,11325.874784693096,0.0,0.0,0.0,2019-03-17T21:30:15.486968,19,EyesClosed
-21548.80273923907,-8520.105006707312,6926.805606699659,3739.8715305175224,21523.902895915857,15584.060917384735,5367.972596642089,11284.702871406422,0.0,0.0,0.0,2019-03-17T21:30:15.487882,19,EyesClosed
-21543.058340914053,-8516.171099683179,7014.603258920105,3962.8525332036656,21525.55692500555,15922.91336332719,5391.508983553527,11470.22235038547,0.0,0.0,0.0,2019-03-17T21:30:15.493248,19,EyesClosed
-21644.110577596497,-8621.336057345397,6963.99890947329,4042.51415044238,21386.730240193636,16311.096109282507,5279.347929876796,11539.646868663654,0.0,0.0,0.0,2019-03-17T21:30:15.494088,19,EyesClosed
-21665.70236274032,-8648.828703025425,6867.372318192997,3827.3115548266837,21365.116103305354,16028.346541922874,5242.221682336532,11368.477209624913,0.0,0.0,0.0,2019-03-17T21:30:15.501256,19,EyesClosed
-21550.143843906386,-8537.047629004435,6903.112757577033,3717.4080273399386,21503.763974161622,15603.417528083031,5352.840465645846,11278.444382958936,0.0,0.0,0.0,2019-03-17T21:30:15.501952,19,EyesClosed
-21510.335387031482,-8493.238209872034,6995.716034855371,3913.857509357633,21535.41404431034,15832.701722705571,5399.1309284127865,11436.962954635974,0.0,0.0,0.0,2019-03-17T21:30:15.509224,19,EyesClosed
-21615.455641204793,-8594.26809481002,6970.279749665231,4053.80178139231,21403.985786913134,16293.304120696082,5297.966933008067,11553.214377548025,0.01,1.02,0.184,2019-03-17T21:30:15.509935,19,EyesClosed
-21662.126083627474,-8643.956022734168,6874.1225450185,3880.106375230119,21358.432931713218,16131.321028628474,5242.489903269995,11417.628695682133,0.0,0.0,0.0,2019-03-17T21:30:15.516221,19,EyesClosed
-21561.096198689487,-8538.388733671753,6880.179867765888,3716.4469023283605,21479.48997968316,15645.349400681187,5332.925061336167,11285.485182462357,0.0,0.0,0.0,2019-03-17T21:30:15.516859,19,EyesClosed
-21504.523933473105,-8469.053622371392,6981.880305037535,3876.8653722840995,21545.807605482056,15750.916689743603,5401.254344136041,11409.090329300205,0.0,0.0,0.0,2019-03-17T21:30:15.523895,19,EyesClosed
-21595.584940384026,-8562.774486872493,6985.0989562391,4061.4013745071147,21427.67863603576,16243.683248005302,5313.7249128490585,11555.471903738011,0.0,0.0,0.0,2019-03-17T21:30:15.524735,19,EyesClosed
-21668.161054630407,-8637.563423819951,6885.700748646349,3924.899271118554,21340.059797770955,16200.186753295275,5221.926298371112,11443.22144308346,0.0,0.0,0.0,2019-03-17T21:30:15.530754,19,EyesClosed
-21587.627719357937,-8556.493646680552,6873.0720130291,3726.0581524441427,21445.62708683337,15699.48532575194,5294.52476436195,11280.724260893378,0.0,0.0,0.0,2019-03-17T21:30:15.531679,19,EyesClosed
-21500.63472993788,-8474.261578829477,6975.599464845594,3839.560310788192,21542.611306024948,15674.518427195362,5387.9774079295885,11367.67254682452,0.0,0.0,0.0,2019-03-17T21:30:15.538992,19,EyesClosed
-21566.237099914208,-8538.008754016013,7003.427386692451,4049.666708668078,21448.175185701275,16173.185845993263,5328.2758984894635,11538.730447140986,0.0,0.0,0.0,2019-03-17T21:30:15.545713,19,EyesClosed
-21656.694609724833,-8632.109598172856,6912.276972803709,3970.7874024852995,21342.60789663886,16267.621966316936,5231.381086275707,11480.057117945806,0.0,0.0,0.0,2019-03-17T21:30:15.546564,19,EyesClosed
-21594.46735316126,-8574.1738765447,6869.428678682885,3745.884149776,21420.9060574658,15780.376288935697,5279.6161508102605,11297.644531446043,0.01,1.024,0.184,2019-03-17T21:30:15.553441,19,EyesClosed
-21486.06139255302,-8462.929244390636,6964.311833895664,3808.4466825064046,21544.980590937208,15631.401912141075,5391.598390531349,11340.112845911128,0.0,0.0,0.0,2019-03-17T21:30:15.554196,19,EyesClosed
-21535.726968732713,-8508.795024012927,7014.066817053177,4042.7153161424776,21478.8194273495,16097.927522412245,5358.182532570664,11528.292182480358,0.0,0.0,0.0,2019-03-17T21:30:15.561369,19,EyesClosed
-21643.641190962935,-8619.056179410956,6925.062170632144,4016.2061472184837,21343.546669905983,16309.375024959449,5240.791170691392,11508.89086829315,0.0,0.0,0.0,2019-03-17T21:30:15.562167,19,EyesClosed
-21606.738460867222,-8580.521771970007,6860.532684389674,3784.2173915168514,21392.31817630746,15877.069935449355,5262.874694213235,11328.154662627538,0.0,0.0,0.0,2019-03-17T21:30:15.569575,19,EyesClosed
-21489.704726899236,-8462.52691299044,6936.349801582075,3777.1542402689747,21528.127375617907,15611.017121197836,5381.58480901537,11325.85243294864,0.0,0.0,0.0,2019-03-17T21:30:15.570221,19,EyesClosed
-21509.01663410862,-8476.094421874812,7009.395302462019,4007.8465947921986,21500.768840404613,16014.130832449298,5380.355463070329,11515.46228116301,0.0,0.0,0.0,2019-03-17T21:30:15.575897,19,EyesClosed
-21625.156298298396,-8592.144679086767,6939.4343423169075,4041.7318393864443,21362.52330094854,16332.285563026138,5263.411136080163,11548.319345512313,0.0,0.0,0.0,2019-03-17T21:30:15.576581,19,EyesClosed
-21623.79284188662,-8597.397339033763,6854.698879086838,3809.1172348400637,21369.13941730731,15967.885073171268,5247.720211472537,11364.20802643395,0.0,0.0,0.0,2019-03-17T21:30:15.584118,19,EyesClosed
-21515.49864000066,-8489.863096459281,6907.046664601167,3738.6421845724803,21505.9767968627,15597.673129758017,5359.233064560064,11304.28299954927,0.0,0.0,0.0,2019-03-17T21:30:15.584831,19,EyesClosed
-21516.660930712336,-8483.649311500707,6989.166973729965,3949.486190019392,21505.887389884876,15908.317674197875,5379.036710147466,11472.368117853179,0.012,1.02,0.186,2019-03-17T21:30:15.591994,19,EyesClosed
-21629.872516378466,-8604.214621092633,6944.530540052717,4043.542330687324,21367.46303647316,16310.716129626768,5268.1720576491425,11547.447627478556,0.0,0.0,0.0,2019-03-17T21:30:15.592641,19,EyesClosed
-21651.039618377643,-8636.535243575006,6854.184788964366,3842.868368967577,21349.581640908917,16049.60305089987,5233.884481654702,11385.844515066687,0.0,0.0,0.0,2019-03-17T21:30:15.598303,19,EyesClosed
-21546.098178159977,-8527.659896333205,6881.610379411028,3717.9444692068664,21485.30143324154,15601.674092015517,5338.133017794254,11280.94777833793,0.0,0.0,0.0,2019-03-17T21:30:15.605586,19,EyesClosed
-21505.932093373787,-8474.485096274031,6985.4565841503845,3913.4104744685264,21534.877602443412,15805.522001447916,5397.789823745468,11436.247698813404,0.0,0.0,0.0,2019-03-17T21:30:15.606441,19,EyesClosed
-21611.298216736104,-8577.973673102102,6969.095107209099,4057.825095394265,21407.56206602598,16273.053440219575,5300.515031875972,11556.991822360973,0.0,0.0,0.0,2019-03-17T21:30:15.613570,19,EyesClosed
-21664.875348195477,-8640.670316299238,6864.913626302913,3886.230753210873,21344.08311177291,16132.840947251434,5227.715400185037,11415.68409391452,0.0,0.0,0.0,2019-03-17T21:30:15.614217,19,EyesClosed
-21560.246832400186,-8543.440227918652,6875.061318285623,3726.4157803554276,21471.24218597915,15646.71285709296,5321.592726897326,11279.271397503782,0.0,0.0,0.0,2019-03-17T21:30:15.621787,19,EyesClosed
-21497.01374733612,-8472.093459617312,6977.722880568848,3877.424165895482,21544.26533511464,15725.234535364454,5396.06873942241,11395.008730293363,0.0,0.0,0.0,2019-03-17T21:30:15.622483,19,EyesClosed
-21582.6432803444,-8551.352745455832,6987.691758595915,4063.681252441556,21429.667941292282,16220.97387563871,5314.931907049645,11547.469979223011,0.0,0.0,0.0,2019-03-17T21:30:15.628695,19,EyesClosed
-21659.846205693033,-8633.115426673345,6880.291626488165,3928.497901975859,21332.616666867336,16201.68432017378,5219.0429233363775,11442.997925638905,0.016,1.018,0.184,2019-03-17T21:30:15.629338,19,EyesClosed
-21578.083524475518,-8555.733687369071,6857.2022744658325,3720.7384372637794,21434.607676816904,15701.944017642025,5287.595723580805,11278.533789936757,0.0,0.0,0.0,2019-03-17T21:30:15.636279,19,EyesClosed
-21485.457895452728,-8464.516218246963,6961.540217583206,3823.712923969379,21543.997114181177,15654.603022885683,5390.704320753136,11361.235244421392,0.0,0.0,0.0,2019-03-17T21:30:15.636927,19,EyesClosed
-21557.117588176443,-8539.528672638973,6991.692720853415,4038.647298651612,21453.718418326192,16144.888537512845,5333.81913111438,11538.730447140986,0.0,0.0,0.0,2019-03-17T21:30:15.646412,19,EyesClosed
-21659.19800510383,-8643.71015354516,6893.74737665026,3967.7475652393778,21333.51073664555,16259.195358657285,5223.356810016252,11485.019205214883,0.0,0.0,0.0,2019-03-17T21:30:15.647057,19,EyesClosed
-21598.200094485295,-8579.962978358624,6853.02249825269,3748.879283533011,21409.350205582406,15786.008928538435,5269.446107083096,11307.47929900638,0.0,0.0,0.0,2019-03-17T21:30:15.654335,19,EyesClosed
-21495.091497312966,-8479.268369587466,6939.27788010572,3792.12990905403,21528.574410507015,15602.814030982738,5376.019224645999,11335.038999919772,0.0,0.0,0.0,2019-03-17T21:30:15.655084,19,EyesClosed
-21535.481099543704,-8518.942715995636,6996.00660753329,4022.934022299531,21473.29854646904,16053.648716646281,5350.20295980012,11519.686760865065,0.0,0.0,0.0,2019-03-17T21:30:15.660637,19,EyesClosed
-21640.444891505827,-8621.693685256683,6923.318734564631,4020.4976821539026,21346.340637962894,16295.963978286265,5242.512255014451,11515.596391629744,0.0,0.0,0.0,2019-03-17T21:30:15.666606,19,EyesClosed
-21619.881286606942,-8604.706359470649,6848.038059239157,3780.4175949594496,21376.13551332182,15868.576272556338,5248.927205673123,11320.555069512733,0.0,0.0,0.0,2019-03-17T21:30:15.667338,19,EyesClosed
-21494.15272404584,-8477.167305608667,6925.151577609966,3767.073603519631,21517.867924912924,15582.786867950783,5372.957035655622,11308.060444362218,0.02,1.016,0.186,2019-03-17T21:30:15.673835,19,EyesClosed
-21508.524895730603,-8487.069128402369,7002.332151214141,4000.3811121441263,21498.488962470172,15968.779142949481,5379.081413636376,11496.37389139818,0.0,0.0,0.0,2019-03-17T21:30:15.674487,19,EyesClosed
-21621.75883314119,-8605.935705415692,6947.503322065273,4052.32656625826,21366.70307716168,16312.839545350022,5271.770688506447,11542.95492684304,0.0,0.0,0.0,2019-03-17T21:30:15.681871,19,EyesClosed
-21623.18934478633,-8616.46337705414,6866.210027481321,3825.23284259234,21374.146208065296,15972.73540171807,5257.867903455246,11364.588006089689,0.0,0.0,0.0,2019-03-17T21:30:15.682612,19,EyesClosed
-21516.325654545504,-8509.286762390944,6912.522841992717,3737.1222659495197,21510.73771843168,15570.627518967096,5367.950244897634,11291.22958078737,0.0,0.0,0.0,2019-03-17T21:30:15.688575,19,EyesClosed
-21500.388860748873,-8491.360663337788,7000.2534389797975,3945.8875591620877,21520.907762158844,15853.265327604453,5396.046387677955,11456.341917078724,0.0,0.0,0.0,2019-03-17T21:30:15.689218,19,EyesClosed
-21610.47120219126,-8599.520754757019,6962.367232128052,4052.4159732360813,21382.595167469404,16281.323585668039,5287.66277881417,11545.212453033026,0.0,0.0,0.0,2019-03-17T21:30:15.698118,19,EyesClosed
-21649.67616196587,-8641.94436573319,6860.64444311195,3847.5398835587366,21343.881946072812,16050.206548000164,5235.314993299841,11380.323634186225,0.0,0.0,0.0,2019-03-17T21:30:15.698763,19,EyesClosed
-21543.93005894781,-8534.097198736334,6887.757109136237,3712.982381937788,21481.456933195226,15591.705213988449,5339.228253272564,11270.911845077497,0.0,0.0,0.0,2019-03-17T21:30:15.704733,19,EyesClosed
-21500.746488660156,-8481.861171944282,6990.485726652829,3898.1442330055515,21536.486928044193,15766.40644865113,5403.578925559393,11420.35560850568,0.0,0.0,0.0,2019-03-17T21:30:15.705373,19,EyesClosed
-21605.553818411092,-8589.261304052032,6973.319586911152,4053.6229674366678,21407.33854858143,16241.716294493235,5307.2652587014745,11550.62157519121,0.014,1.022,0.18,2019-03-17T21:30:15.711266,19,EyesClosed
-21650.48082476626,-8642.391400622297,6878.458783442829,3898.9935992948535,21344.016056539545,16135.970191475177,5234.532682243906,11428.692809187509,0.0,0.0,0.0,2019-03-17T21:30:15.712160,19,EyesClosed
-21550.568527051037,-8545.78716108646,6880.515143932717,3725.1864344103856,21464.29079345355,15643.896537291592,5319.379904196251,11288.770888897287,0.0,0.0,0.0,2019-03-17T21:30:15.718345,19,EyesClosed
-21484.116790785407,-8476.697918975105,6980.0474619922,3864.5272093447697,21541.694884502278,15689.829372147247,5397.141623156264,11400.797832107286,0.0,0.0,0.0,2019-03-17T21:30:15.726301,19,EyesClosed
-21572.78616103961,-8558.84057984836,6993.167935987465,4063.323624530271,21430.897287237323,16187.602721166937,5319.536366407438,11563.563235230833,0.0,0.0,0.0,2019-03-17T21:30:15.727256,19,EyesClosed
-21655.957002157807,-8641.877310499825,6894.306170261642,3950.268501075328,21326.715806331136,16203.763032408124,5217.791225646881,11474.357423109703,0.0,0.0,0.0,2019-03-17T21:30:15.733922,19,EyesClosed
-21581.23512044372,-8568.295367752955,6868.6463676269495,3739.625661328514,21419.52024930957,15701.675796708561,5275.704595530581,11304.28299954927,0.0,0.0,0.0,2019-03-17T21:30:15.734390,19,EyesClosed
-21497.371375247407,-8481.503544032998,6964.110668195566,3826.8421681931222,21526.093366872476,15616.80622301176,5373.471125778095,11371.762916059843,0.0,0.0,0.0,2019-03-17T21:30:15.741040,19,EyesClosed
-21561.02914345612,-8547.910576809714,7002.488613425328,4050.2031505350055,21445.58238334446,16102.375519558851,5324.096122276321,11554.197854304059,0.0,0.0,0.0,2019-03-17T21:30:15.741857,19,EyesClosed
-21650.883156166456,-8640.558557576962,6923.743417709282,4006.5948971027015,21335.03065526851,16258.748323768179,5224.362638516741,11520.51377540991,0.0,0.0,0.0,2019-03-17T21:30:15.748786,19,EyesClosed
-21601.217579986762,-8590.110670341333,6868.847533327047,3775.74608036829,21395.60388274239,15790.211056496031,5255.118638887244,11332.177976629493,0.014,1.026,0.182,2019-03-17T21:30:15.749322,19,EyesClosed
-21498.667776425813,-8481.458840544086,6952.308947123164,3805.3397900271166,21524.34993080496,15583.144495862067,5368.218465831097,11349.433523348991,0.0,0.0,0.0,2019-03-17T21:30:15.757039,19,EyesClosed
-21537.336294333494,-8515.58995432734,7012.703360641403,4039.5637201742793,21476.427790692782,16020.344617407873,5350.158256311209,11536.09294129526,0.0,0.0,0.0,2019-03-17T21:30:15.757957,19,EyesClosed
-21646.099882853017,-8627.683952770705,6938.763789983248,4044.9728423324636,21345.044236784488,16284.56458861406,5237.661926467648,11543.133740798681,0.0,0.0,0.0,2019-03-17T21:30:15.763519,19,EyesClosed
-21625.64803667641,-8614.295257841975,6864.623053624994,3808.6701999509573,21374.48148423213,15877.360508127274,5242.333441058808,11354.999107718362,0.0,0.0,0.0,2019-03-17T21:30:15.764214,19,EyesClosed
-21511.877657398898,-8497.619151785273,6930.5159962792395,3770.7616413547566,21512.83878241048,15550.801521635238,5356.506151736517,11318.923392167497,0.0,0.0,0.0,2019-03-17T21:30:15.771643,19,EyesClosed
-21515.20806732274,-8495.696901762116,7014.3350379866415,4002.6162865896567,21506.513238729625,15918.822994091868,5370.63245423227,11504.599333357732,0.0,0.0,0.0,2019-03-17T21:30:15.772298,19,EyesClosed
-21623.345806997517,-8608.930839172703,6961.875493750035,4070.9455693895306,21369.117065562852,16288.476143893737,5258.270234855442,11562.490351496977,0.0,0.0,0.0,2019-03-17T21:30:15.779391,19,EyesClosed
-21628.12908031095,-8621.581926534405,6873.921379318403,3855.206531906907,21364.736123649614,15977.339861075863,5232.901004898668,11390.650140124577,0.0,0.0,0.0,2019-03-17T21:30:15.780336,19,EyesClosed
-21513.509334744136,-8501.128375664757,6916.210879827843,3756.858856303556,21503.093421827965,15567.744143932361,5340.189378284143,11313.044883375751,0.0,0.0,0.0,2019-03-17T21:30:15.786090,19,EyesClosed
-21493.795096134556,-8467.623110726252,7009.551764673205,3958.806867457255,21522.830012182,15826.130309835711,5372.8899804222565,11474.17860915406,0.012,1.022,0.182,2019-03-17T21:30:15.793718,19,EyesClosed
-21608.906580079387,-8586.668501695216,6979.958055014379,4083.3731393066814,21386.886702404823,16267.197283172285,5265.154572147676,11574.537941758388,0.0,0.0,0.0,2019-03-17T21:30:15.794371,19,EyesClosed
-21648.80444393211,-8639.508025587562,6883.398518967452,3896.6690178715016,21343.323152461428,16061.762399883557,5206.9506295860565,11421.964934106461,0.0,0.0,0.0,2019-03-17T21:30:15.801847,19,EyesClosed
-21535.50345128816,-8534.387771414253,6905.2138215558325,3752.1649899679414,21474.863168580912,15589.402984309554,5301.632619098737,11301.041996603251,0.0,0.0,0.0,2019-03-17T21:30:15.802781,19,EyesClosed
-21482.418058206804,-8473.680433473639,6999.180555245943,3918.104340804141,21527.076843628507,15727.246192365432,5356.953186625622,11429.810396410276,0.0,0.0,0.0,2019-03-17T21:30:15.808460,19,EyesClosed
-21581.905672777375,-8543.328469196376,6986.752985328792,4081.7638137058993,21400.32010082246,16211.004997611642,5261.734755246014,11564.926691642606,0.0,0.0,0.0,2019-03-17T21:30:15.809209,19,EyesClosed
-21642.613010717992,-8585.081527838889,6890.059338815134,3934.06348634523,21331.11909998883,16137.244240909129,5186.901114809646,11453.100914132705,0.0,0.0,0.0,2019-03-17T21:30:15.816509,19,EyesClosed
-21551.909631718354,-8482.10704113329,6880.1575160214325,3739.5139026062375,21444.017761232586,15635.291115676298,5263.053508168878,11295.7669849118,0.0,0.0,0.0,2019-03-17T21:30:15.817158,19,EyesClosed
-21472.29271796855,-8391.023682477913,6978.4157846469625,3864.0578227112082,21531.033102397098,15648.702162349484,5348.794799899435,11391.410099436058,0.0,0.0,0.0,2019-03-17T21:30:15.824537,19,EyesClosed
-21553.720123019233,-8465.2985293029,6998.867630823569,4069.827982166765,21430.13732792584,16147.213118936197,5281.538400833417,11559.115238084227,0.0,0.0,0.0,2019-03-17T21:30:15.825304,19,EyesClosed
-21642.613010717992,-8557.387716458765,6897.770690652214,3967.1217163946294,21324.145355718774,16193.928264847787,5179.860315306225,11477.441963844534,0.01,1.016,0.186,2019-03-17T21:30:15.831425,19,EyesClosed
-21574.060210473563,-8481.525895777451,6863.550169891139,3749.2145596998407,21415.362824840882,15700.289988552331,5237.930147401113,11302.897191393042,0.0,0.0,0.0,2019-03-17T21:30:15.832101,19,EyesClosed
-21481.836912850966,-8381.2783218954,6950.56551105565,3815.0180953762647,21524.372282549415,15585.379670307599,5339.921157350678,11354.641479807076,0.0,0.0,0.0,2019-03-17T21:30:15.839166,19,EyesClosed
-21545.204108381764,-8441.67273541364,6992.139755742522,4038.557891673791,21452.9137555258,16063.729353395625,5300.626790598249,11540.295069252858,0.0,0.0,0.0,2019-03-17T21:30:15.839809,19,EyesClosed
-21641.540126984135,-8550.570434399895,6909.728873935804,4003.5327081123246,21337.243477969587,16245.650201517368,5201.250934749954,11519.753816098431,0.0,0.0,0.0,2019-03-17T21:30:15.847653,19,EyesClosed
-21604.70445212179,-8510.694922291628,6850.586158107061,3764.2572837182624,21393.14519085231,15787.148867505655,5229.883519397202,11333.563784785723,0.0,0.0,0.0,2019-03-17T21:30:15.854161,19,EyesClosed
-21501.774668905102,-8399.13736571519,6927.0514758886675,3765.8442575745894,21517.7785179351,15541.302030241732,5340.099971306321,11333.630840019088,0.0,0.0,0.0,2019-03-17T21:30:15.854863,19,EyesClosed
-21518.292608057574,-8414.671828111628,7001.371026202563,4004.002094745886,21484.049735552042,15967.728610960081,5338.9600323391005,11528.783920858374,0.0,0.0,0.0,2019-03-17T21:30:15.860653,19,EyesClosed
-21633.18057455785,-8524.754169554017,6932.594708513583,4028.745475857911,21350.85569034287,16258.03306794561,5223.625030949715,11549.235767034981,0.0,0.0,0.0,2019-03-17T21:30:15.861580,19,EyesClosed
-21613.399280714904,-8504.168212910678,6861.069126256601,3803.3281330261393,21373.788580154014,15874.90181623719,5222.194519304576,11362.911625255541,0.0,0.0,0.0,2019-03-17T21:30:15.868680,19,EyesClosed
-21495.315014757518,-8383.84877250776,6923.877528176014,3752.9696527683323,21509.329558530993,15527.622762635085,5332.098046791321,11312.19551708645,0.0,0.0,0.0,2019-03-17T21:30:15.869323,19,EyesClosed
-21492.543398445057,-8376.360938115233,7008.970619317368,3978.1858299000064,21504.948616617756,15869.492694079006,5347.498398721028,11491.4118041291,0.016,1.012,0.186,2019-03-17T21:30:15.876936,19,EyesClosed
-21603.51980966566,-8490.77951798195,6954.56647331315,4055.7463831599216,21362.858577115367,16254.389733599393,5228.184786818599,11555.024868848905,0.0,0.0,0.0,2019-03-17T21:30:15.877661,19,EyesClosed
-21617.869629605964,-8510.694922291628,6860.242111711755,3840.655546266502,21345.334809462405,15963.459427769118,5187.817536332314,11380.34598593068,0.0,0.0,0.0,2019-03-17T21:30:15.883802,19,EyesClosed
-21511.564732976527,-8395.47167962452,6904.543269222173,3739.2009781838633,21489.950596088245,15541.570251175197,5300.671494087159,11296.504592478823,0.0,0.0,0.0,2019-03-17T21:30:15.884562,19,EyesClosed
-21491.738735644667,-8365.945025199058,6996.632456378038,3932.2529950443504,21517.55500049055,15774.430724910586,5342.066924818388,11451.69275423202,0.0,0.0,0.0,2019-03-17T21:30:15.891451,19,EyesClosed
-21597.104859006984,-8472.62990148424,6967.128153697033,4061.066098340285,21384.159789581274,16229.914573420832,5237.103132856266,11560.791618918374,0.0,0.0,0.0,2019-03-17T21:30:15.892143,19,EyesClosed
-21639.79669091662,-8522.630753830761,6869.808658338626,3876.91007577301,21336.550573891473,16054.788655613502,5180.30735019533,11419.439186983012,0.0,0.0,0.0,2019-03-17T21:30:15.899426,19,EyesClosed
-21540.242021112685,-8427.032342795414,6881.565675922117,3717.8997657179557,21465.67660160978,15575.097867858156,5279.772613021447,11295.543467467245,0.0,0.0,0.0,2019-03-17T21:30:15.900069,19,EyesClosed
-21481.412229706315,-8360.379440829687,6976.024147990245,3879.3464159186383,21530.630770996904,15682.788572643825,5349.085372577354,11422.769596906854,0.0,0.0,0.0,2019-03-17T21:30:15.906547,19,EyesClosed
-21580.095181476496,-8458.682412944128,6965.049441462689,4048.8843976121425,21404.7010427357,16167.553206390527,5254.6716039981375,11562.982089874995,0.0,0.0,0.0,2019-03-17T21:30:15.913366,19,EyesClosed
-21647.083359609052,-8537.204091215623,6867.439373426363,3916.427959969993,21325.97819876411,16123.833194235945,5172.998329758445,11459.851140958208,0.01,1.014,0.188,2019-03-17T21:30:15.914385,19,EyesClosed
-21568.785198782112,-8460.068221100357,6851.055544740623,3718.167986651419,21435.27822915056,15622.170641681034,5252.212912108053,11304.014778615807,0.0,0.0,0.0,2019-03-17T21:30:15.921021,19,EyesClosed
-21486.53077918658,-8379.55723757234,6954.588825057605,3834.2629473522843,21534.184698365298,15608.446670585476,5352.348727267829,11396.238076238404,0.0,0.0,0.0,2019-03-17T21:30:15.921787,19,EyesClosed
-21558.279878888115,-8450.456970984575,6980.181572458932,4042.0894672977292,21434.33945588344,16104.163659115275,5288.37803463674,11563.697345697565,0.0,0.0,0.0,2019-03-17T21:30:15.930502,19,EyesClosed
-21657.499272525227,-8548.469370421097,6879.263446243221,3951.2743295758164,21319.65265508326,16183.53470367607,5181.380233929185,11489.55660933931,0.0,0.0,0.0,2019-03-17T21:30:15.931337,19,EyesClosed
-21591.09223974851,-8480.743584721517,6844.059448726112,3731.3555158800505,21407.80793521499,15699.999415874412,5236.589042733794,11314.43069153198,0.0,0.0,0.0,2019-03-17T21:30:15.936980,19,EyesClosed
-21478.26063373812,-8364.246292620455,6943.3682493410415,3798.7683771572565,21533.7823669651,15559.585757206174,5352.192265056642,11365.660889823544,0.0,0.0,0.0,2019-03-17T21:30:15.937693,19,EyesClosed
-21538.11860538943,-8418.315162457844,6986.082432995133,4028.767827602366,21460.736866085157,16025.127890721309,5313.434340171139,11549.056953079338,0.0,0.0,0.0,2019-03-17T21:30:15.943745,19,EyesClosed
-21652.71599921179,-8530.856195790315,6895.6472749289605,4004.1809087015286,21330.672065099727,16235.323695579016,5198.635780648682,11528.09101678026,0.0,0.0,0.0,2019-03-17T21:30:15.944553,19,EyesClosed
-21612.28169349214,-8496.367454095776,6831.989506720246,3769.264074476251,21379.734144179125,15795.955454821045,5219.288792525386,11339.017610432818,0.0,0.0,0.0,2019-03-17T21:30:15.952316,19,EyesClosed
-21498.6230729369,-8379.758403272439,6908.588934968583,3765.2407604742957,21514.02342486661,15526.751044601328,5333.506206692005,11331.395665573558,0.008,1.02,0.17400000000000002,2019-03-17T21:30:15.953067,19,EyesClosed
-21520.34896854746,-8394.018816234924,6979.220447447354,3997.3859783871153,21482.283947740074,15931.71995064258,5324.833729843346,11515.641095118654,0.0,0.0,0.0,2019-03-17T21:30:15.959748,19,EyesClosed
-21626.810327388088,-8502.648294287717,6914.936830393891,4031.5394439148245,21343.814890839447,16251.46165507575,5206.883574352691,11544.877176866195,0.0,0.0,0.0,2019-03-17T21:30:15.960402,19,EyesClosed
-21616.640283660923,-8499.004959941502,6832.928279987369,3797.3825690010276,21354.722542133637,15887.821124532358,5194.45600443554,11361.01172697684,0.0,0.0,0.0,2019-03-17T21:30:15.966841,19,EyesClosed
-21505.59681720696,-8391.828345278305,6890.685187659882,3731.243757157774,21495.002090335143,15519.285561953255,5309.85806105829,11305.042958860751,0.0,0.0,0.0,2019-03-17T21:30:15.973135,19,EyesClosed
-21503.20518055024,-8385.748670786461,6979.71218582537,3949.68735571949,21499.718308415213,15836.27800181842,5332.813302613891,11480.615911557188,0.0,0.0,0.0,2019-03-17T21:30:15.973906,19,EyesClosed
-21617.780222628146,-8504.279971632955,6932.661763746949,4041.0165835638745,21360.08696080291,16240.64341075938,5217.567708202328,11557.707078183543,0.0,0.0,0.0,2019-03-17T21:30:15.981252,19,EyesClosed
-21641.182499072853,-8529.984477756558,6836.348096889031,3835.8052177197005,21337.22112622513,15975.484666286073,5177.312216438319,11393.444108181491,0.0,0.0,0.0,2019-03-17T21:30:15.982121,19,EyesClosed
-21529.35672156295,-8414.113034500246,6868.936940304869,3720.5149198192266,21476.718363370703,15536.250535994834,5287.439261369617,11298.33743552416,0.0,0.0,0.0,2019-03-17T21:30:15.989421,19,EyesClosed
-21488.184808276274,-8371.08592642378,6968.335147897619,3914.818634369211,21516.526820245603,15743.384151862163,5340.681116662159,11453.771466466364,0.0,0.0,0.0,2019-03-17T21:30:15.990130,19,EyesClosed
-21590.71226009277,-8472.071107872856,6946.005755186768,4057.199246549517,21384.09273434791,16210.557962722536,5239.159493346155,11570.693441712076,0.012,1.032,0.176,2019-03-17T21:30:15.995723,19,EyesClosed
-21643.462377007294,-8533.02431500248,6840.997259735735,3882.1180322310965,21323.40774815175,16065.9421760967,5169.489105878962,11431.263259799869,0.0,0.0,0.0,2019-03-17T21:30:15.996375,19,EyesClosed
-21542.432492069303,-8431.525043430931,6847.9263005168805,3717.2515651287517,21445.80590078901,15574.628481224596,5262.51706630195,11295.431708744969,0.0,0.0,0.0,2019-03-17T21:30:16.003805,19,EyesClosed
-21483.468590196204,-8367.062612421825,6944.508188308262,3868.394061135538,21514.64927371136,15656.90525256458,5339.474122461573,11415.795852636797,0.0,0.0,0.0,2019-03-17T21:30:16.004377,19,EyesClosed
-21568.51697784865,-8450.993412851503,6953.605348301572,4061.714298929489,21407.71852823717,16161.227662709674,5264.595778536293,11572.749802201963,0.0,0.0,0.0,2019-03-17T21:30:16.011834,19,EyesClosed
-21640.556650228104,-8527.391675399742,6854.028326753179,3941.819541671222,21317.283370170997,16147.816616036489,5174.540600125862,11474.670347532076,0.0,0.0,0.0,2019-03-17T21:30:16.012506,19,EyesClosed
-21554.100102674976,-8445.383124993221,6838.762085290205,3738.59748108357,21424.102356922907,15651.183205984022,5248.8601504397575,11312.642551975556,0.0,0.0,0.0,2019-03-17T21:30:16.019088,19,EyesClosed
-21468.20234873323,-8359.641833262664,6939.836673717103,3837.079267153653,21527.322712817517,15600.042414670279,5344.503264964016,11389.39844243508,0.0,0.0,0.0,2019-03-17T21:30:16.019704,19,EyesClosed
-21540.711407746247,-8429.982773063513,6970.927950254435,4050.605481935201,21437.602810573913,16086.751650184591,5283.147726434198,11561.484522996489,0.0,0.0,0.0,2019-03-17T21:30:16.025667,19,EyesClosed
-21641.160147328395,-8536.667649348694,6869.965120549813,3971.100326907674,21315.428175381207,16193.637692169868,5169.936140768068,11497.379719898669,0.0,0.0,0.0,2019-03-17T21:30:16.026361,19,EyesClosed
-21590.13111473693,-8476.116773619267,6822.020628693179,3737.792818283179,21389.70302220619,15709.275389823366,5215.019609334423,11310.988522885862,0.014,1.022,0.182,2019-03-17T21:30:16.033834,19,EyesClosed
-21493.079840311988,-8376.09271718177,6904.230344799798,3772.862705333556,21509.06133759753,15527.332189957166,5321.525671663961,11339.19642438846,0.0,0.0,0.0,2019-03-17T21:30:16.041577,19,EyesClosed
-21526.719215717225,-8415.364732189742,6959.796781515692,4003.130376712129,21453.852528792922,15986.459372813628,5294.368302150763,11527.040484790861,0.0,0.0,0.0,2019-03-17T21:30:16.042376,19,EyesClosed
-21632.979408857755,-8524.173024198179,6878.905818331936,3997.0283504758304,21324.92766677471,16225.332465807494,5182.8778008076915,11523.151281255638,0.0,0.0,0.0,2019-03-17T21:30:16.048659,19,EyesClosed
-21611.9017138364,-8498.043834929924,6815.449215823319,3773.7344233673125,21373.02862084253,15810.931123606102,5205.0283795629,11345.76783725832,0.0,0.0,0.0,2019-03-17T21:30:16.049302,19,EyesClosed
-21504.278064284095,-8388.296769654366,6885.633693412983,3753.9978330132767,21507.69788118576,15516.715111340895,5320.743360608025,11328.579345772188,0.0,0.0,0.0,2019-03-17T21:30:16.056286,19,EyesClosed
-21509.93305563129,-8402.221906450022,6957.360441370063,3977.7611467553556,21477.232453493172,15898.035871748432,5313.85902331579,11506.23101070297,0.0,0.0,0.0,2019-03-17T21:30:16.056984,19,EyesClosed
-21622.787013386132,-8512.840689759338,6898.88827787498,4028.4325514355364,21338.294009958987,16242.476253804714,5198.635780648682,11550.688630424576,0.0,0.0,0.0,2019-03-17T21:30:16.064302,19,EyesClosed
-21624.46339422028,-8515.321733393876,6819.427826336364,3809.5419179847145,21347.234707741107,15907.423604419662,5185.828231075791,11376.546189373279,0.0,0.0,0.0,2019-03-17T21:30:16.064950,19,EyesClosed
-21496.58906419147,-8392.2306766785,6880.224571254799,3740.78795204019,21495.91851185781,15526.035788778758,5309.232212213542,11319.795110201254,0.0,0.0,0.0,2019-03-17T21:30:16.072428,19,EyesClosed
-21476.02545929259,-8372.18116190209,6969.877418265035,3952.615434243135,21505.060375340032,15813.501574218462,5339.362363739296,11489.668368061588,0.016,1.026,0.184,2019-03-17T21:30:16.073127,19,EyesClosed
-21596.926045051343,-8484.968064423569,6923.206975842354,4050.985461590941,21361.98685908161,16231.456843788248,5222.641554193682,11570.67108996762,0.0,0.0,0.0,2019-03-17T21:30:16.078871,19,EyesClosed
-21633.627609446958,-8521.06613171889,6823.49584382723,3850.6691277824793,21328.123966231822,15994.707166517635,5172.059556491323,11405.670512398543,0.0,0.0,0.0,2019-03-17T21:30:16.079572,19,EyesClosed
-21514.291645800073,-8399.405586648654,6858.677489599882,3727.4439606003716,21471.28688946806,15544.163053532011,5282.074842700344,11299.455022746924,0.0,0.0,0.0,2019-03-17T21:30:16.088423,19,EyesClosed
-21465.9671742877,-8346.566062756308,6961.003775716278,3913.7233988909006,21520.21485808073,15722.194698118532,5342.357497496307,11446.149521607103,0.0,0.0,0.0,2019-03-17T21:30:16.089259,19,EyesClosed
-21573.479065117725,-8452.781552407927,6941.311888851153,4064.1729908195725,21386.082039604433,16195.850514870945,5239.94180440209,11568.055935866349,0.0,0.0,0.0,2019-03-17T21:30:16.094499,19,EyesClosed
-21631.839469890532,-8513.578297326363,6837.979774234268,3900.848794084644,21315.629341081305,16080.984900115121,5163.051803475833,11436.962954635974,0.0,0.0,0.0,2019-03-17T21:30:16.100686,19,EyesClosed
-21527.009788395142,-8418.359865946753,6841.332535902565,3721.721914019813,21436.731092540158,15582.69746097296,5250.760048718459,11293.509458721812,0.0,0.0,0.0,2019-03-17T21:30:16.101061,19,EyesClosed
-21455.68537183826,-8347.527187767886,6946.855121476069,3863.454325610915,21520.550134247558,15632.698313319483,5337.842445116335,11406.5422304323,0.0,0.0,0.0,2019-03-17T21:30:16.108077,19,EyesClosed
-21545.293515359583,-8433.223776009534,6959.305043137675,4060.3061390288044,21412.434746317238,16133.936182729743,5264.416964580651,11564.81493292033,0.0,0.0,0.0,2019-03-17T21:30:16.108457,19,EyesClosed
-21631.504193723704,-8526.072922476878,6854.251844197732,3942.221873071417,21314.93643700319,16148.643630581337,5168.304463422831,11470.89290271913,0.022,1.02,0.188,2019-03-17T21:30:16.116739,19,EyesClosed
-21560.35859112246,-8456.58134896533,6825.663963039394,3726.21461465533,21414.08877540693,15647.629278615628,5234.957365388556,11300.036168102763,0.0,0.0,0.0,2019-03-17T21:30:16.117092,19,EyesClosed
-21471.68922086826,-8358.36778382871,6921.508243263751,3814.012266875776,21523.187640093285,15564.927824130991,5334.981421826055,11365.839703779186,0.0,0.0,0.0,2019-03-17T21:30:16.125199,19,EyesClosed
-21535.726968732713,-8415.588249634297,6960.780258271726,4032.724086370956,21442.38608388735,16050.765341611546,5282.968912478556,11545.547729199854,0.0,0.0,0.0,2019-03-17T21:30:16.125845,19,EyesClosed
-21635.23693504774,-8527.838710288848,6869.316919960609,3975.7271380099223,21321.954884762155,16199.046814328054,5173.69123383656,11503.928781024073,0.0,0.0,0.0,2019-03-17T21:30:16.131502,19,EyesClosed
-21577.70354481978,-8475.625035241252,6818.421997835875,3747.9628620103435,21386.9984611271,15735.270468624887,5211.711551155037,11324.936011425974,0.0,0.0,0.0,2019-03-17T21:30:16.132148,19,EyesClosed
-21475.667831381303,-8365.386231587676,6904.2750482887095,3774.852010590078,21513.576389977505,15528.159204502012,5323.5820321538495,11344.896119224564,0.0,0.0,0.0,2019-03-17T21:30:16.139246,19,EyesClosed
-21515.92332314531,-8387.693272554074,6965.876456007535,4007.8242430477435,21465.229566720674,15971.148427861743,5306.438244156629,11534.573022672299,0.0,0.0,0.0,2019-03-17T21:30:16.139968,19,EyesClosed
-21626.363292498983,-8503.96704721058,6886.237190513277,4006.7513593138888,21324.30181792996,16232.64148624438,5189.024530532901,11536.741141884464,0.0,0.0,0.0,2019-03-17T21:30:16.147156,19,EyesClosed
-21598.26714971866,-8493.126451149756,6811.895288454925,3770.247551232285,21352.912050832754,15824.789205168392,5193.114899768222,11349.120598926616,0.0,0.0,0.0,2019-03-17T21:30:16.147828,19,EyesClosed
-21470.68339236777,-8371.689423524072,6883.756146878737,3740.855007273556,21497.14785780285,15511.842431049638,5312.853194815301,11325.494805037357,0.02,1.016,0.192,2019-03-17T21:30:16.154436,19,EyesClosed
-21488.7212501432,-8383.1782201741,6963.082487950622,3967.635806517101,21483.803866363036,15879.19335117261,5323.090293775832,11508.644999104143,0.0,0.0,0.0,2019-03-17T21:30:16.160486,19,EyesClosed
-21608.23602774573,-8499.675512275162,6910.757054180748,4035.383943961137,21346.184175751707,16244.443207316783,5211.488033710484,11563.965566631028,0.0,0.0,0.0,2019-03-17T21:30:16.160988,19,EyesClosed
-21601.262283475673,-8498.245000630022,6826.647439795428,3823.8917379250215,21343.814890839447,15927.830747107357,5189.538620655372,11388.414965679047,0.0,0.0,0.0,2019-03-17T21:30:16.168550,19,EyesClosed
-21487.73777338717,-8382.37355737371,6875.687167130372,3731.9366612358886,21482.909796584823,15520.917239298493,5300.962066765078,11313.313104309214,0.0,0.0,0.0,2019-03-17T21:30:16.169462,19,EyesClosed
-21472.784456346566,-8357.384307072676,6965.742345540803,3935.695163690468,21498.734831659178,15782.656166870138,5333.506206692005,11475.385603354645,0.0,0.0,0.0,2019-03-17T21:30:16.176827,19,EyesClosed
-21584.27495768964,-8461.655194956684,6922.804644442159,4051.097220313218,21356.577736923427,16219.833936671488,5221.769836159925,11568.055935866349,0.0,0.0,0.0,2019-03-17T21:30:16.177475,19,EyesClosed
-21613.399280714904,-8499.83197448635,6827.139178173445,3862.2473314103286,21317.97627424911,16018.578829595905,5170.383175657174,11417.807509637774,0.0,0.0,0.0,2019-03-17T21:30:16.184759,19,EyesClosed
-21499.561846204026,-8391.00133073346,6853.469533141796,3721.5431000641706,21457.16058697231,15553.12610305859,5278.275046142941,11307.434595517469,0.0,0.0,0.0,2019-03-17T21:30:16.185585,19,EyesClosed
-21454.701895082224,-8339.055876619324,6951.817208745148,3894.970285292898,21513.174058577308,15696.780764672849,5343.698602163626,11446.082466373738,0.0,0.0,0.0,2019-03-17T21:30:16.192606,19,EyesClosed
-21550.769692751135,-8436.487130700008,6942.295365607187,4060.999043106919,21391.602920484893,16182.417116453305,5253.643423753193,11581.66814823963,0.014,1.02,0.188,2019-03-17T21:30:16.193238,19,EyesClosed
-21615.343882482517,-8504.771710010971,6840.170245190889,3907.129634276585,21315.808155036946,16102.621388747859,5174.182972214577,11459.672327002565,0.0,0.0,0.0,2019-03-17T21:30:16.199565,19,EyesClosed
-21523.657026726847,-8412.459005410554,6836.415152122397,3721.766617508724,21433.84771750542,15606.345606606676,5261.220665123542,11312.262572319814,0.0,0.0,0.0,2019-03-17T21:30:16.200247,19,EyesClosed
-21447.929316512265,-8334.205548072523,6942.094199907089,3853.664261539491,21524.238172082685,15623.064711459247,5352.281672034464,11413.046588068795,0.0,0.0,0.0,2019-03-17T21:30:16.207566,19,EyesClosed
-21534.8328989545,-8418.605735135763,6961.763735027759,4059.6355866951453,21418.804993487,16124.86137448089,5282.030139211433,11576.728412715009,0.0,0.0,0.0,2019-03-17T21:30:16.208243,19,EyesClosed
-21619.724824395755,-8511.879564747758,6861.73967859026,3958.1139633791404,21315.94226550368,16174.571654149493,5183.436594419074,11495.926856509073,0.0,0.0,0.0,2019-03-17T21:30:16.213824,19,EyesClosed
-21543.97476243672,-8438.1411597897,6830.871919497481,3739.111571206042,21409.506667793594,15684.911988367081,5243.741600959493,11325.181880614982,0.0,0.0,0.0,2019-03-17T21:30:16.220964,19,EyesClosed
-21442.207269931707,-8328.88583289216,6931.56652826864,3815.9568686433877,21527.054491884053,15576.1260481031,5351.655823189714,11387.275026711826,0.0,0.0,0.0,2019-03-17T21:30:16.221621,19,EyesClosed
-21501.774668905102,-8387.51445859843,6969.363328142564,4037.41795270657,21446.565860100494,16051.480597434116,5303.599572610805,11567.430087021601,0.0,0.0,0.0,2019-03-17T21:30:16.228976,19,EyesClosed
-21609.644187646412,-8497.976779696559,6875.977739808291,3993.988513229908,21317.55159110446,16221.130337849896,5187.6387223766715,11530.013266803417,0.0,0.0,0.0,2019-03-17T21:30:16.229884,19,EyesClosed
-21568.87460575993,-8457.698936188095,6824.322858372076,3768.370004698039,21379.13064707883,15766.674669584594,5220.495786725973,11346.43838959198,0.018000000000000002,1.02,0.184,2019-03-17T21:30:16.236103,19,EyesClosed
-21463.28496495306,-8349.18121685758,6904.431510499896,3782.6751211494357,21506.110907329432,15529.008570791313,5332.299212491419,11350.372296616113,0.0,0.0,0.0,2019-03-17T21:30:16.236930,19,EyesClosed
-21495.58323569098,-8373.32110086931,6968.513961853262,4016.161443729573,21462.279136452573,15952.261203797008,5315.557755894394,11536.383513973178,0.0,0.0,0.0,2019-03-17T21:30:16.243502,19,EyesClosed
-21611.432327202838,-8498.714387263582,6899.22355404181,4037.41795270657,21331.409672666752,16244.152634638864,5205.095434796266,11555.67306943811,0.0,0.0,0.0,2019-03-17T21:30:16.244245,19,EyesClosed
-21592.61215837147,-8488.767860980972,6823.697009527327,3804.3563132710833,21355.884832845313,15858.316821851353,5206.034208063389,11370.44416313698,0.0,0.0,0.0,2019-03-17T21:30:16.251712,19,EyesClosed
-21473.186787746763,-8366.392060088165,6888.785289381181,3759.8986935494777,21500.098288070953,15517.989160774847,5328.901747334212,11335.508386553334,0.0,0.0,0.0,2019-03-17T21:30:16.252396,19,EyesClosed
-21471.979793546176,-8356.914920439116,6972.3137584106635,3984.1760974140284,21496.656119424835,15861.401362586184,5346.269052775986,11518.27860096438,0.0,0.0,0.0,2019-03-17T21:30:16.259869,19,EyesClosed
-21582.799742555588,-8468.58423573783,6919.697751962871,4061.8707611406758,21356.287164245507,16249.829977730511,5232.789246176391,11585.020909907927,0.0,0.0,0.0,2019-03-17T21:30:16.260805,19,EyesClosed
-21597.104859006984,-8488.432584814142,6827.094474684534,3847.517531814281,21341.266791971542,15959.369058533795,5200.043940549367,11412.599553179689,0.0,0.0,0.0,2019-03-17T21:30:16.266298,19,EyesClosed
-21486.01668906411,-8374.617502047719,6865.047736769645,3741.525559607215,21476.092514525953,15535.892908083548,5308.740473835525,11324.645438748055,0.0,0.0,0.0,2019-03-17T21:30:16.266935,19,EyesClosed
-21452.109092725408,-8335.345487039744,6962.255473405776,3948.078030118708,21505.105078828943,15778.029355767889,5353.443962746139,11488.081394205261,0.016,1.02,0.18,2019-03-17T21:30:16.273534,19,EyesClosed
-21550.948506706776,-8429.222813752034,6940.775446984226,4085.541258518846,21374.995574354598,16238.944678180776,5253.643423753193,11600.06363392635,0.0,0.0,0.0,2019-03-17T21:30:16.274181,19,EyesClosed
-21585.772524568143,-8465.231474069533,6843.634765581462,3907.844890099155,21328.66040809875,16074.502894223082,5199.663960893627,11459.448809558013,0.0,0.0,0.0,2019-03-17T21:30:16.281463,19,EyesClosed
-21485.547302430547,-8375.176295659101,6852.419001152397,3745.660632331447,21453.606659603913,15589.581798265195,5293.697749817104,11328.445235305457,0.0,0.0,0.0,2019-03-17T21:30:16.289341,19,EyesClosed
-21423.700025522714,-8315.005399585414,6957.673365792438,3913.7010471464455,21524.215820338228,15706.637883977639,5371.9512071551335,11463.382716582146,0.0,0.0,0.0,2019-03-17T21:30:16.290106,19,EyesClosed
-21527.233305839694,-8413.487185655498,6949.85025523308,4081.6297032391676,21401.37063281186,16195.425831726294,5282.678339800637,11602.991712449993,0.0,0.0,0.0,2019-03-17T21:30:16.295735,19,EyesClosed
-21597.46248691827,-8488.656102258696,6845.73582956026,3942.8253701717103,21324.30181792996,16146.855491024911,5202.949667328557,11492.328225651769,0.0,0.0,0.0,2019-03-17T21:30:16.296560,19,EyesClosed
-21521.667721470323,-8408.033360008403,6821.886518226447,3737.390486882983,21431.81370875999,15635.626391843129,5274.944636219101,11327.059427149228,0.0,0.0,0.0,2019-03-17T21:30:16.304043,19,EyesClosed
-21447.079950222964,-8332.08213234927,6921.351781052564,3845.528226557759,21522.830012182,15614.213420654944,5363.412840773206,11412.532497946322,0.0,0.0,0.0,2019-03-17T21:30:16.304796,19,EyesClosed
-21528.68616922929,-8421.153834003668,6941.691868506893,4046.671574911067,21418.46971732017,16104.118955626363,5291.306113160385,11575.946101659072,0.0,0.0,0.0,2019-03-17T21:30:16.311955,19,EyesClosed
-21625.916257609875,-8517.087521205845,6845.512312115707,3958.5609982682467,21308.297968899962,16185.412250210316,5186.677597365093,11505.538106624856,0.016,1.028,0.182,2019-03-17T21:30:16.312602,19,EyesClosed
-21556.581146309512,-8451.708668674073,6813.459910566797,3745.235949186796,21394.86627517537,15703.642750220628,5244.680374226615,11331.95445918494,0.0,0.0,0.0,2019-03-17T21:30:16.319207,19,EyesClosed
-21457.58527011696,-8345.403772044632,6906.823147156614,3809.430159262438,21512.39174752137,15563.586719463674,5356.282634291963,11378.557846374255,0.0,0.0,0.0,2019-03-17T21:30:16.319864,19,EyesClosed
-21509.01663410862,-8397.684502325596,6951.146656411488,4030.868891581165,21438.76510128559,16024.390283154284,5313.14376749322,11556.18715956058,0.0,0.0,0.0,2019-03-17T21:30:16.326573,19,EyesClosed
-21615.81326911608,-8515.701713049617,6863.97485303579,3999.0847109657184,21308.297968899962,16223.723140206712,5196.020626547412,11528.247478991447,0.0,0.0,0.0,2019-03-17T21:30:16.327267,19,EyesClosed
-21572.18266393932,-8469.321843304855,6812.387026832942,3776.9530745688767,21370.011135341065,15788.534675661884,5230.039981608389,11349.277061137804,0.0,0.0,0.0,2019-03-17T21:30:16.334755,19,EyesClosed
-21461.094493996443,-8356.64669950565,6889.344082992564,3773.5109059227593,21502.668738683315,15524.180593988967,5343.855064374812,11346.728962269899,0.0,0.0,0.0,2019-03-17T21:30:16.335401,19,EyesClosed
-21484.742639630156,-8380.60776956174,6959.148580926488,4002.482176122925,21467.978831288678,15932.994000076533,5335.182587526154,11536.115293039715,0.0,0.0,0.0,2019-03-17T21:30:16.341773,19,EyesClosed
-21596.61312062897,-8489.885448203737,6893.814431883626,4037.708525384489,21331.677893600216,16253.7862364991,5220.674600681616,11567.653604466153,0.0,0.0,0.0,2019-03-17T21:30:16.348658,19,EyesClosed
-21583.93968152281,-8480.788288210428,6820.143082158934,3814.7945779317115,21353.56025142196,15894.571351357861,5218.037094835889,11392.080651769716,0.0,0.0,0.0,2019-03-17T21:30:16.349561,19,EyesClosed
-21465.631898120868,-8357.160789628124,6885.253713757243,3756.590635370092,21499.0254043371,15532.651905137529,5337.708334649603,11343.018572690318,0.014,1.018,0.18,2019-03-17T21:30:16.357544,19,EyesClosed
-21457.54056662805,-8340.575795242286,6975.375947401041,3973.0225769308304,21499.69595667076,15852.259499103964,5359.076602348877,11516.71397885251,0.0,0.0,0.0,2019-03-17T21:30:16.358390,19,EyesClosed
-21575.110742462963,-8466.080840358834,6925.308039821153,4060.708470429,21354.096693288888,16254.657954532857,5241.841702680791,11586.3843663197,0.0,0.0,0.0,2019-03-17T21:30:16.365768,19,EyesClosed
-21595.450829917292,-8496.836840729338,6827.653268295917,3856.0335464517534,21329.062739498942,15987.576960036393,5201.653266150149,11420.869698628152,0.0,0.0,0.0,2019-03-17T21:30:16.366671,19,EyesClosed
-21481.412229706315,-8382.731185284994,6859.1692279779,3739.648013072969,21466.749485343636,15542.687838397962,5311.735607592536,11323.863127692119,0.0,0.0,0.0,2019-03-17T21:30:16.372241,19,EyesClosed
-21446.43174963376,-8345.2696615779,6946.676307520427,3926.486244974881,21497.237264780673,15745.462864096507,5356.126172080776,11469.194170140527,0.0,0.0,0.0,2019-03-17T21:30:16.373032,19,EyesClosed
-21558.235175399208,-8450.345212262298,6918.311943806642,4067.570455976779,21360.51164394756,16210.133279577885,5251.408249307662,11581.355223817256,0.0,0.0,0.0,2019-03-17T21:30:16.378836,19,EyesClosed
-21603.251588732193,-8501.508355320497,6824.233451394254,3900.848794084644,21312.45539336865,16066.9927080861,5194.344245713263,11449.479931530945,0.0,0.0,0.0,2019-03-17T21:30:16.379515,19,EyesClosed
-21494.599758934946,-8398.28799942589,6838.091532956545,3738.5751293391145,21444.554203099517,15583.636234240084,5294.792985295414,11322.007932902328,0.0,0.0,0.0,2019-03-17T21:30:16.386813,19,EyesClosed
-21435.010008217097,-8333.445588761042,6934.2710893477315,3883.2132677094064,21513.174058577308,15662.359078211675,5366.877361163779,11435.823015668753,0.0,0.0,0.0,2019-03-17T21:30:16.387692,19,EyesClosed
-21527.300361073063,-8422.271421226433,6940.127246395022,4064.8435431532316,21398.174333354753,16161.518235387593,5282.365415378263,11585.982034919505,0.014,1.022,0.176,2019-03-17T21:30:16.394924,19,EyesClosed
-21600.524675908648,-8496.032177928946,6841.77957079167,3937.617413713624,21312.321282901918,16148.554223603514,5197.36173121473,11486.628530815666,0.0,0.0,0.0,2019-03-17T21:30:16.395733,19,EyesClosed
-21515.8786196564,-8411.341418187789,6826.669791539883,3734.887091503989,21419.743766754123,15649.439769916507,5271.9271507176345,11325.159528870527,0.0,0.0,0.0,2019-03-17T21:30:16.401125,19,EyesClosed
-21427.745691269123,-8318.961658354005,6927.140882866488,3838.599185776614,21522.338273803984,15606.792641495782,5370.699509465637,11408.285666499814,0.0,0.0,0.0,2019-03-17T21:30:16.408440,19,EyesClosed
-21499.49479097066,-8392.878877267704,6955.840522747103,4054.226464536961,21430.472604092673,16099.223923590653,5311.690904103626,11580.707023228053,0.0,0.0,0.0,2019-03-17T21:30:16.409118,19,EyesClosed
-21596.344899695505,-8492.96998893857,6863.3043007021315,3985.517202081347,21317.417480637727,16207.719291176712,5205.341303985275,11521.85488007723,0.0,0.0,0.0,2019-03-17T21:30:16.416555,19,EyesClosed
-21534.20705010975,-8434.564880676851,6827.474454340274,3767.7665075977457,21398.241388588118,15728.810814477303,5254.55984527586,11341.968040700918,0.0,0.0,0.0,2019-03-17T21:30:16.417307,19,EyesClosed
-21430.092624436933,-8334.27260330589,6916.769673439226,3809.8771941515442,21515.92332314531,15551.583832691174,5359.478933749072,11370.600625348166,0.0,0.0,0.0,2019-03-17T21:30:16.424924,19,EyesClosed
-21481.702802384236,-8379.80310676135,6970.0785839651335,4033.2158247489724,21450.656229335815,16007.827640512902,5323.067942031377,11555.494255482467,0.0,0.0,0.0,2019-03-17T21:30:16.425572,19,EyesClosed
-21583.962033267264,-8485.750375479505,6892.562734194128,4020.4753304094475,21320.2338004391,16244.554966039059,5209.588135431783,11550.800389146852,0.0,0.0,0.0,2019-03-17T21:30:16.431545,19,EyesClosed
-21546.344047348983,-8453.966194864059,6830.000201463724,3792.018150331754,21365.160806794265,15820.967056866535,5230.151740330665,11372.6346340936,0.016,1.02,0.18,2019-03-17T21:30:16.432203,19,EyesClosed
-21438.653342563313,-8340.307574308823,6902.486908732285,3775.522562923737,21499.561846204026,15530.953172558926,5344.1232853082765,11360.184712431994,0.0,0.0,0.0,2019-03-17T21:30:16.439190,19,EyesClosed
-21459.753389329122,-8351.662260492118,6973.029014233233,4000.1799464440282,21469.096418511443,15920.253505737008,5335.830788115357,11542.753761142942,0.0,0.0,0.0,2019-03-17T21:30:16.439874,19,EyesClosed
-21569.70162030478,-8468.092497359812,6913.707484448849,4052.32656625826,21334.494213401584,16264.470370348738,5221.41220824864,11587.39019482019,0.0,0.0,0.0,2019-03-17T21:30:16.447143,19,EyesClosed
-21576.49655061919,-8486.040948157424,6824.63578279445,3827.04333389322,21336.327056446917,15917.43718593564,5201.36269347223,11406.45282345448,0.0,0.0,0.0,2019-03-17T21:30:16.447806,19,EyesClosed
-21459.887499795856,-8369.32013861181,6876.2236089972985,3753.5507981241703,21475.10903776992,15531.064931281202,5316.34006695033,11345.454912835947,0.0,0.0,0.0,2019-03-17T21:30:16.454492,19,EyesClosed
-21445.224755433173,-8343.70503946603,6970.838543276614,3976.1741728990287,21491.49286645566,15831.271211060432,5352.482837734561,11523.531260911377,0.0,0.0,0.0,2019-03-17T21:30:16.455135,19,EyesClosed
-21559.08454168851,-8453.787380908416,6935.589842270594,4084.781299207366,21357.516510190548,16255.440265588793,5245.641499238193,11610.63600905371,0.0,0.0,0.0,2019-03-17T21:30:16.460832,19,EyesClosed
-21593.908559549876,-8492.72411974956,6838.784437034659,3882.319197931194,21325.441756897184,16012.141527192776,5198.9040015821465,11445.16604485107,0.0,0.0,0.0,2019-03-17T21:30:16.468414,19,EyesClosed
-21481.233415750674,-8380.026624205902,6867.685242615372,3750.2203882003296,21461.318011440995,15552.991992591858,5302.973723766056,11337.542395298768,0.0,0.0,0.0,2019-03-17T21:30:16.468900,19,EyesClosed
-21439.502708852615,-8331.657449204618,6963.440115861907,3932.878843889099,21505.954445118245,15731.247154622932,5356.841427903346,11483.812211014296,0.016,1.02,0.184,2019-03-17T21:30:16.476761,19,EyesClosed
-21536.486928044193,-8432.307354486866,6950.967842455846,4089.072834142785,21379.644737201303,16210.937942378278,5259.119601144744,11610.703064287074,0.0,0.0,0.0,2019-03-17T21:30:16.477626,19,EyesClosed
-21587.98534726922,-8489.460765059086,6854.028326753179,3929.749599665356,21317.26101842654,16098.687481723724,5188.175164243599,11483.566341825288,0.0,0.0,0.0,2019-03-17T21:30:16.483888,19,EyesClosed
-21498.913645614823,-8400.14319421568,6849.647384839939,3748.7004695773685,21433.33362738295,15600.198876881466,5272.016557695456,11336.693029009466,0.0,0.0,0.0,2019-03-17T21:30:16.484597,19,EyesClosed
-21431.38902561534,-8323.543765967343,6952.711278523359,3892.980980036376,21514.6269219669,15653.999525785392,5356.349689525329,11448.02706814135,0.0,0.0,0.0,2019-03-17T21:30:16.491387,19,EyesClosed
-21523.992302893676,-8410.827328065316,6963.238950161809,4086.860011441709,21402.935254923734,16152.24226143864,5278.587970565316,11604.332817117313,0.0,0.0,0.0,2019-03-17T21:30:16.492157,19,EyesClosed
-21598.021280529654,-8492.478250560553,6867.21585598181,3971.189733885495,21310.086108456388,16166.592081378947,5187.191687487565,11515.104653251727,0.0,0.0,0.0,2019-03-17T21:30:16.500557,19,EyesClosed
-21514.381052777895,-8413.509537399952,6838.247995167732,3753.0590597461537,21404.455173546696,15663.856645090182,5247.139066116699,11337.944726698963,0.0,0.0,0.0,2019-03-17T21:30:16.501110,19,EyesClosed
-21421.688368521736,-8326.047161346336,6930.560699768151,3836.8781014535552,21506.759107918635,15581.199894094456,5340.926985851167,11399.032044295316,0.0,0.0,0.0,2019-03-17T21:30:16.507355,19,EyesClosed
-21489.54826468805,-8383.602903318751,6975.308892167675,4067.928083888064,21432.707778538203,16078.548559969493,5299.173927208653,11585.087965141292,0.0,0.0,0.0,2019-03-17T21:30:16.508213,19,EyesClosed
-21590.93577753732,-8481.01180565498,6885.253713757243,4010.0594174932744,21316.098727714867,16221.73383495019,5193.472527679507,11541.770284386908,0.016,1.016,0.184,2019-03-17T21:30:16.514031,19,EyesClosed
-21541.40431182436,-8430.76508411945,6833.598832321029,3775.857839090567,21381.65639420228,15747.87685249768,5229.391781019185,11357.167226930527,0.0,0.0,0.0,2019-03-17T21:30:16.514726,19,EyesClosed
-21430.114976181387,-8321.30859152181,6919.161310095944,3805.0939208381083,21510.424794009305,15545.101826799135,5340.39054398424,11378.759012074353,0.0,0.0,0.0,2019-03-17T21:30:16.521262,19,EyesClosed
-21466.704781854725,-8353.450400048543,6977.2981974241975,4038.960223073986,21457.49586313914,15992.248474627553,5315.62481112776,11566.826589921307,0.0,0.0,0.0,2019-03-17T21:30:16.522103,19,EyesClosed
-21587.203036213286,-8476.340291063821,6893.635617927983,4038.6920021405226,21318.043329482476,16249.986439941698,5194.344245713263,11566.29014805438,0.0,0.0,0.0,2019-03-17T21:30:16.529201,19,EyesClosed
-21558.570451566036,-8455.262596042467,6826.312163628598,3809.653676706991,21356.711847390157,15843.095283877288,5204.581344673794,11382.782326076309,0.0,0.0,0.0,2019-03-17T21:30:16.536178,19,EyesClosed
-21442.788415287545,-8338.02769637438,6892.540382449673,3774.2932169786955,21494.331538001483,15529.50030916933,5318.597593140315,11355.110866440638,0.0,0.0,0.0,2019-03-17T21:30:16.536822,19,EyesClosed
-21450.432711891262,-8343.548577254842,6974.437174133918,4002.2810104228274,21481.63574715087,15899.824011304858,5327.337125222341,11541.27854600889,0.0,0.0,0.0,2019-03-17T21:30:16.543656,19,EyesClosed
-21558.011657954652,-8454.122657075246,6923.944583409379,4069.9844443779525,21351.928574076723,16266.906710494366,5221.725132671015,11599.728357759519,0.0,0.0,0.0,2019-03-17T21:30:16.544447,19,EyesClosed
-21569.433399371315,-8468.114849104268,6834.582309077062,3847.42812483646,21348.665219386246,15942.1135118143,5199.999237060456,11421.473195728446,0.0,0.0,0.0,2019-03-17T21:30:16.551629,19,EyesClosed
-21456.892366038843,-8355.08207739378,6881.3868619664745,3753.0590597461537,21487.804828620534,15531.534317914764,5312.361456437285,11343.465607579423,0.022,1.012,0.182,2019-03-17T21:30:16.552357,19,EyesClosed
-21444.241278677142,-8340.642850475651,6966.748174041292,3954.560036010747,21501.841724138467,15794.949626320556,5343.318622507885,11503.571153112789,0.0,0.0,0.0,2019-03-17T21:30:16.559654,19,EyesClosed
-21555.664724786846,-8454.167360564155,6929.5772230121165,4069.4256507665696,21365.630193427827,16230.87569843241,5237.0360776229,11600.488317071,0.0,0.0,0.0,2019-03-17T21:30:16.560287,19,EyesClosed
-21592.031013015632,-8493.908762205692,6831.54247183114,3875.367805405594,21328.034559254,16022.020998242022,5189.31510321082,11447.758847207886,0.0,0.0,0.0,2019-03-17T21:30:16.566326,19,EyesClosed
-21485.30143324154,-8388.18501093209,6849.2227016952875,3728.695658289869,21460.33453468496,15550.198024534944,5291.820203282858,11328.579345772188,0.0,0.0,0.0,2019-03-17T21:30:16.566980,19,EyesClosed
-21432.059577949,-8326.404789257622,6951.683098278416,3905.743826120356,21520.371320291917,15704.022729876368,5359.30011979343,11469.596501540722,0.0,0.0,0.0,2019-03-17T21:30:16.574367,19,EyesClosed
-21535.123471632418,-8428.328743973821,6940.104894650566,4067.1010693432177,21392.76521119657,16190.173171779297,5261.622996523738,11603.684616528108,0.0,0.0,0.0,2019-03-17T21:30:16.575054,19,EyesClosed
-21596.814286329067,-8493.752299994505,6836.929242244869,3912.20348026794,21317.79746029347,16104.610694004381,5179.234466461476,11480.12417317917,0.0,0.0,0.0,2019-03-17T21:30:16.582519,19,EyesClosed
-21502.802849150044,-8410.268534453933,6835.0740474550785,3729.9920594682767,21435.38998787284,15607.574952551719,5263.679357013626,11331.61918301811,0.0,0.0,0.0,2019-03-17T21:30:16.583224,19,EyesClosed
-21432.953647727212,-8340.17346384209,6937.601499271572,3862.5155523437925,21519.20902958024,15632.206574941467,5347.565453954394,11434.16898657906,0.0,0.0,0.0,2019-03-17T21:30:16.589663,19,EyesClosed
-21515.386881278384,-8426.09356952829,6951.571339556139,4058.540351216835,21410.691310249724,16127.968266960177,5270.407232094673,11591.927598944618,0.018000000000000002,1.016,0.182,2019-03-17T21:30:16.595684,19,EyesClosed
-21593.32741419404,-8515.433492116154,6851.055544740623,3952.0566406317525,21304.766393276026,16170.280119214074,5166.002233743934,11507.03567350336,0.0,0.0,0.0,2019-03-17T21:30:16.596339,19,EyesClosed
-21517.510297001638,-8442.05271506938,6821.506538570708,3735.4458851153718,21394.75451645309,15675.546607440307,5226.039019350889,11332.848528963154,0.0,0.0,0.0,2019-03-17T21:30:16.604482,19,EyesClosed
-21421.263685377085,-8337.55830974082,6920.122435107522,3817.23091807734,21510.87182889841,15574.2261498244,5336.166064282187,11395.031082037816,0.0,0.0,0.0,2019-03-17T21:30:16.605435,19,EyesClosed
-21479.624090149893,-8389.99550223297,6966.1446769409995,4046.9174441000755,21438.228659418663,16060.8906818498,5294.122432961754,11580.014119149939,0.0,0.0,0.0,2019-03-17T21:30:16.611905,19,EyesClosed
-21575.848350029988,-8489.05843365889,6882.1244695335,4003.2197836899504,21321.798422550968,16235.278992090107,5188.890420066169,11548.654621679143,0.0,0.0,0.0,2019-03-17T21:30:16.612548,19,EyesClosed
-21527.501526773158,-8446.858340127272,6829.687277041349,3770.0910890210976,21383.668051203258,15776.352974933741,5222.708609427048,11364.275081667314,0.0,0.0,0.0,2019-03-17T21:30:16.619161,19,EyesClosed
-21422.20245864421,-8346.968394156504,6908.276010546209,3780.6411124040023,21511.810602165533,15537.569288917697,5333.886186347746,11369.952424758963,0.0,0.0,0.0,2019-03-17T21:30:16.619911,19,EyesClosed
-21462.68146785277,-8385.033414963891,6964.222426917842,4005.074978479741,21460.312182940506,15958.743209689048,5309.6121918692825,11548.207586790037,0.0,0.0,0.0,2019-03-17T21:30:16.626693,19,EyesClosed
-21572.65205057288,-8489.885448203737,6897.658931929938,4032.098237526207,21329.979161021613,16253.361553354449,5199.8427748492695,11568.055935866349,0.0,0.0,0.0,2019-03-17T21:30:16.627340,19,EyesClosed
-21548.914497961345,-8468.316014804366,6826.982715962257,3809.720731940357,21361.22689977013,15869.939728968113,5208.6493621646605,11390.247808724382,0.016,1.014,0.184,2019-03-17T21:30:16.634744,19,EyesClosed
-21440.68735130875,-8351.885777936672,6887.578295180595,3766.693623863891,21502.467572983216,15527.64511437954,5328.678229889659,11354.172093173516,0.0,0.0,0.0,2019-03-17T21:30:16.635387,19,EyesClosed
-21447.303467667516,-8355.12678088269,6961.361403627563,3988.802908516277,21490.59879667745,15871.660813291172,5338.781218383458,11534.483615694478,0.0,0.0,0.0,2019-03-17T21:30:16.642872,19,EyesClosed
-21562.705524290268,-8475.043889885414,6904.051530844156,4064.2400460529384,21349.291068230996,16256.043762689087,5225.591984461783,11599.929523459617,0.0,0.0,0.0,2019-03-17T21:30:16.643583,19,EyesClosed
-21572.473236617236,-8497.932076207648,6807.022608163668,3846.6011102916136,21335.79061457999,15957.20093932163,5193.606638146239,11428.625753954144,0.0,0.0,0.0,2019-03-17T21:30:16.648844,19,EyesClosed
-21461.38506667436,-8386.687444053585,6843.9923934927465,3738.105742705553,21474.52789241408,15532.964829559904,5306.058264500888,11346.214872147426,0.0,0.0,0.0,2019-03-17T21:30:16.656095,19,EyesClosed
-21438.072197207475,-8361.385269330176,6939.255528361265,3936.879806146599,21502.601683449946,15777.671727856605,5349.979442355567,11502.967656012495,0.0,0.0,0.0,2019-03-17T21:30:16.656928,19,EyesClosed
-21544.488852559192,-8469.232436327033,6911.517013492229,4061.4907814849357,21366.47955971713,16233.222631600218,5241.506426513962,11602.902305472173,0.0,0.0,0.0,2019-03-17T21:30:16.664238,19,EyesClosed
-21591.047536259597,-8516.282858405455,6812.185861132844,3872.104450715119,21315.137602703286,16047.03260028751,5177.781603071881,11449.435228042035,0.0,0.0,0.0,2019-03-17T21:30:16.665117,19,EyesClosed
-21479.937014572268,-8403.071272739324,6832.59300382054,3720.6043267970476,21451.34913341393,15567.833550910182,5282.276008400441,11325.360694570625,0.0,0.0,0.0,2019-03-17T21:30:16.671469,19,EyesClosed
-21425.130537167854,-8345.247309833445,6930.560699768151,3883.302674687228,21507.92139863031,15686.744831412416,5346.380811498262,11452.922100177062,0.016,1.024,0.178,2019-03-17T21:30:16.672257,19,EyesClosed
-21527.34506456197,-8448.378258750232,6926.89501367748,4059.2779587838604,21387.445496016204,16180.718383874702,5255.297452842886,11593.067537911838,0.0,0.0,0.0,2019-03-17T21:30:16.678889,19,EyesClosed
-21596.90369330689,-8524.105968964812,6825.172224661377,3918.752541393345,21305.146372931766,16127.074197181964,5167.92448376709,11477.576074311266,0.0,0.0,0.0,2019-03-17T21:30:16.679753,19,EyesClosed
-21507.6755294413,-8435.81657836635,6814.108111156001,3724.8958617324665,21419.52024930957,15625.90338300507,5247.653156239171,11319.951572412441,0.0,0.0,0.0,2019-03-17T21:30:16.686950,19,EyesClosed
-21428.7068162807,-8352.109295381224,6914.601554227061,3841.3484503446166,21514.87279115591,15619.041397457291,5339.585881183849,11412.443090968502,0.0,0.0,0.0,2019-03-17T21:30:16.687599,19,EyesClosed
-21510.35773877594,-8433.693162643094,6930.024257901223,4041.3518597307043,21409.23844686013,16115.04895866501,5266.294511114897,11575.655528981153,0.0,0.0,0.0,2019-03-17T21:30:16.694848,19,EyesClosed
-21592.433344415826,-8519.725027051572,6839.320878901587,3956.549341267269,21308.052099710956,16195.135259048375,5170.316120423809,11511.237801460959,0.0,0.0,0.0,2019-03-17T21:30:16.695490,19,EyesClosed
-21524.193468593774,-8452.15570356318,6803.669846495372,3737.7704665387237,21395.514475764572,15706.995511888923,5227.8495106517685,11338.280002865793,0.0,0.0,0.0,2019-03-17T21:30:16.701472,19,EyesClosed
-21427.27630463556,-8348.600071501742,6896.474289473807,3799.4389294909156,21513.06229985503,15570.538111989274,5334.713200892592,11386.269198211337,0.0,0.0,0.0,2019-03-17T21:30:16.702185,19,EyesClosed
-21482.239244251163,-8405.2840954404,6943.301194107676,4025.862100823176,21442.92252575428,16042.204623485164,5296.33525566283,11570.469924267521,0.0,0.0,0.0,2019-03-17T21:30:16.708693,19,EyesClosed
-21586.085448990518,-8518.49568110653,6858.901007044436,3993.1167951961515,21318.11038471584,16239.861099703445,5183.50364965244,11545.883005366684,0.01,1.028,0.18,2019-03-17T21:30:16.716331,19,EyesClosed
-21546.94754444928,-8482.598779511307,6796.405529547397,3755.607158614059,21369.877024874335,15792.155658263644,5207.084740052788,11358.48597985339,0.0,0.0,0.0,2019-03-17T21:30:16.716997,19,EyesClosed
-21436.9099064958,-8369.789525245373,6871.954425806335,3754.98130976931,21501.10411657144,15532.853070837626,5322.062113530888,11356.608433319145,0.0,0.0,0.0,2019-03-17T21:30:16.724384,19,EyesClosed
-21458.14406372834,-8388.117955698724,6943.5470632966835,3989.5852195722127,21469.87872956738,15947.500282228028,5320.1175117632765,11547.492330967467,0.0,0.0,0.0,2019-03-17T21:30:16.725248,19,EyesClosed
-21573.27789941763,-8499.11671866378,6876.827106097592,4023.023429277352,21332.84018431189,16261.385829613904,5205.74363538547,11574.649700480664,0.0,0.0,0.0,2019-03-17T21:30:16.731226,19,EyesClosed
-21560.69386728929,-8490.801869726405,6797.701930725805,3804.7362929268234,21352.107388032364,15896.068918236366,5202.167356272621,11397.06509078325,0.0,0.0,0.0,2019-03-17T21:30:16.732155,19,EyesClosed
-21451.863223536402,-8381.457135851042,6850.1167714735,3740.430324128905,21483.289776240563,15529.008570791313,5309.679247102648,11340.872805222609,0.0,0.0,0.0,2019-03-17T21:30:16.738944,19,EyesClosed
-21450.90209852482,-8378.238484649479,6932.281784091209,3955.7893819557885,21478.8194273495,15850.828987458824,5323.984363554045,11512.444795661546,0.0,0.0,0.0,2019-03-17T21:30:16.739485,19,EyesClosed
-21564.761884780157,-8492.813526727383,6880.738661377271,4039.4072579630924,21335.008303524053,16249.919384708332,5206.45889120804,11582.651624995664,0.0,0.0,0.0,2019-03-17T21:30:16.747083,19,EyesClosed
-21571.93679475031,-8507.498622834519,6794.572686502062,3834.2405956078287,21320.479669628105,15983.531294289984,5173.892399536658,11417.44988172649,0.0,0.0,0.0,2019-03-17T21:30:16.748123,19,EyesClosed
-21461.496825396636,-8395.292865668878,6831.6095270645055,3716.9609924508327,21460.289831196053,15542.039637808757,5281.136069433221,11320.689179979467,0.012,1.022,0.182,2019-03-17T21:30:16.754183,19,EyesClosed
-21437.491051851637,-8361.720545497006,6923.922231664924,3905.140329020063,21495.896160113356,15750.559061832317,5327.068904288877,11469.641205029631,0.0,0.0,0.0,2019-03-17T21:30:16.755102,19,EyesClosed
-21542.07486415802,-8465.2985293029,6901.324618020609,4042.223577764461,21364.065571315954,16220.236268071685,5224.519100727928,11582.3834040622,0.0,0.0,0.0,2019-03-17T21:30:16.761657,19,EyesClosed
-21585.280786190127,-8520.507338107507,6803.982770917746,3866.4718111123816,21309.035576466988,16068.914958109255,5157.68738480656,11441.5003587604,0.0,0.0,0.0,2019-03-17T21:30:16.762302,19,EyesClosed
-21482.10513378443,-8421.824386337326,6816.611506534995,3704.0193324112097,21439.63681931935,15579.23294058239,5254.537493531406,11307.434595517469,0.0,0.0,0.0,2019-03-17T21:30:16.768873,19,EyesClosed
-21416.972150441667,-8352.981013414981,6923.519900264729,3862.1802761769627,21513.419927766317,15673.087915550223,5333.595613669827,11433.006695867383,0.0,0.0,0.0,2019-03-17T21:30:16.769564,19,EyesClosed
-21510.558904476038,-8441.650383669185,6924.458673531852,4044.414048721081,21396.788525198524,16171.57652039248,5249.463647540051,11581.57874126181,0.0,0.0,0.0,2019-03-17T21:30:16.777511,19,EyesClosed
-21582.598576855493,-8521.915498008191,6826.580384562062,3916.6514774145458,21312.880076513302,16150.163549204297,5165.644605832649,11480.638263301644,0.0,0.0,0.0,2019-03-17T21:30:16.785255,19,EyesClosed
-21503.808677650533,-8443.080895314324,6808.162547130889,3711.2165941258186,21419.028510931556,15645.662325103562,5240.098266613277,11317.559935755722,0.0,0.0,0.0,2019-03-17T21:30:16.786176,19,EyesClosed
-21416.793336486022,-8358.680708251084,6906.644333200972,3814.1016738535973,21518.270256313117,15605.362129850642,5338.401238727718,11399.188506506503,0.0,0.0,0.0,2019-03-17T21:30:16.791643,19,EyesClosed
-21490.01765132161,-8434.341363232299,6934.1593306254545,4029.7289526139443,21426.47164183517,16104.029548648543,5281.896028744702,11575.543770258877,0.016,1.018,0.18,2019-03-17T21:30:16.792355,19,EyesClosed
-21594.489704905714,-8533.873681291781,6834.291736399143,3953.1518761100624,21310.846067767867,16208.881581888389,5175.322911181797,11515.03759801836,0.0,0.0,0.0,2019-03-17T21:30:16.799296,19,EyesClosed
-21527.300361073063,-8468.047793870903,6796.785509203138,3733.143655436475,21392.56404549647,15731.582430789762,5227.22366180702,11339.352886599647,0.0,0.0,0.0,2019-03-17T21:30:16.799936,19,EyesClosed
-21424.9070197233,-8362.145228641657,6887.444184713863,3779.4117664589608,21511.564732976527,15563.340850274666,5335.495511948528,11374.892160283585,0.0,0.0,0.0,2019-03-17T21:30:16.806460,19,EyesClosed
-21474.371430202893,-8411.22965946551,6935.254566103765,4004.717350568456,21443.90600251031,16020.45637613015,5298.838651041824,11556.835360149786,0.0,0.0,0.0,2019-03-17T21:30:16.807138,19,EyesClosed
-21582.26330068866,-8525.268259676488,6849.669736584394,3985.1148706811514,21309.639073567283,16246.968954440232,5180.799088573348,11542.396133231656,0.0,0.0,0.0,2019-03-17T21:30:16.814006,19,EyesClosed
-21545.82995722651,-8494.802831983905,6786.794279431615,3754.668385346936,21354.476672944627,15817.793109153881,5197.451138192551,11356.38491587459,0.0,0.0,0.0,2019-03-17T21:30:16.814737,19,EyesClosed
-21430.249086648117,-8374.885722981182,6866.321786203598,3751.1815132119077,21493.30335775654,15536.541108672753,5316.317715205874,11345.320802369215,0.0,0.0,0.0,2019-03-17T21:30:16.821958,19,EyesClosed
-21448.95749675721,-8387.246237664967,6937.534444038206,3984.6231323031348,21463.06144750851,15929.596534919327,5311.556793636893,11527.643981891153,0.0,0.0,0.0,2019-03-17T21:30:16.822639,19,EyesClosed
-21560.090370189,-8500.904858220203,6874.077841529589,4031.9417753150196,21324.54768711897,16269.723030295734,5196.065330036322,11567.228921321503,0.0,0.0,0.0,2019-03-17T21:30:16.829990,19,EyesClosed
-21564.672477802334,-8502.514183820986,6794.662093479883,3806.725598183346,21333.197812223174,15920.208802248098,5180.039129261867,11385.129259244117,0.022,1.016,0.182,2019-03-17T21:30:16.830661,19,EyesClosed
-21447.05759847851,-8382.84294400727,6850.586158107061,3735.2000159263634,21478.215930249207,15536.74227437285,5296.402310896196,11324.645438748055,0.0,0.0,0.0,2019-03-17T21:30:16.837233,19,EyesClosed
-21431.366673870885,-8361.452324563543,6937.5567957826615,3947.005146384853,21485.25672975263,15835.383932040208,5322.8220728423685,11497.60323734322,0.0,0.0,0.0,2019-03-17T21:30:16.844951,19,EyesClosed
-21543.21480312524,-8479.335424820832,6895.26729527322,4044.5034556989026,21343.79253909499,16251.685172520301,5210.7057226545485,11578.829476693807,0.0,0.0,0.0,2019-03-17T21:30:16.845609,19,EyesClosed
-21576.630661085925,-8516.416968872187,6802.529907528152,3841.23669162234,21317.953922504657,16007.78293702399,5173.199495458543,11420.087387572215,0.0,0.0,0.0,2019-03-17T21:30:16.851524,19,EyesClosed
-21462.793226575046,-8402.445423894576,6836.839835267047,3716.40219883945,21461.7650463301,15562.804408407737,5287.9533514920895,11322.007932902328,0.0,0.0,0.0,2019-03-17T21:30:16.852380,19,EyesClosed
-21415.966321941178,-8355.663222749617,6937.825016716125,3905.1850325089736,21513.956369633244,15754.090637456256,5351.454657489617,11474.111553920693,0.0,0.0,0.0,2019-03-17T21:30:16.859478,19,EyesClosed
-21521.19833483676,-8464.851494413793,6914.467443760329,4051.4548482245027,21381.365821524363,16225.26541057413,5251.005917907467,11594.229828623513,0.0,0.0,0.0,2019-03-17T21:30:16.860195,19,EyesClosed
-21575.06603897405,-8523.435416631153,6811.984695432747,3885.940180532954,21316.165782948232,16098.799240446002,5177.245161204954,11462.667460759576,0.0,0.0,0.0,2019-03-17T21:30:16.866237,19,EyesClosed
-21484.653232652337,-8425.110092772256,6814.4657390672855,3711.8200912261123,21437.80397627401,15602.366996093631,5268.1720576491425,11322.365560813614,0.0,0.0,0.0,2019-03-17T21:30:16.867133,19,EyesClosed
-21414.602865529403,-8349.18121685758,6921.687057219393,3860.772116276278,21518.560828991038,15669.042249803812,5354.20392205762,11440.963916893474,0.0,0.0,0.0,2019-03-17T21:30:16.874296,19,EyesClosed
-21497.863113625423,-8431.972078320036,6934.9192899369355,4055.6569761821006,21409.216095115673,16176.471552428193,5278.275046142941,11602.432918838611,0.022,1.016,0.18,2019-03-17T21:30:16.875033,19,EyesClosed
-21582.978556511232,-8519.814434029393,6830.626050308472,3931.5377392217806,21306.800402021458,16182.528875175582,5177.401623416141,11506.5662868698,0.0,0.0,0.0,2019-03-17T21:30:16.882490,19,EyesClosed
-21507.8766951414,-8450.278157028933,6802.686369739338,3716.893937217467,21398.08492637693,15676.48538070743,5234.085647354799,11329.76398822832,0.0,0.0,0.0,2019-03-17T21:30:16.883252,19,EyesClosed
-21414.647569018314,-8354.3221180823,6902.598667454561,3810.9277261409434,21506.06620384052,15607.530249062807,5336.277823004463,11402.273047241337,0.0,0.0,0.0,2019-03-17T21:30:16.889630,19,EyesClosed
-21474.416133691804,-8412.682522855106,6934.89693819248,4028.477254924447,21421.77777549956,16102.71079572568,5284.578238079338,11582.986901162494,0.0,0.0,0.0,2019-03-17T21:30:16.890286,19,EyesClosed
-21575.580129096525,-8514.762939782493,6842.651288825427,3966.026480916319,21302.777088019502,16241.40337007086,5175.904056537635,11535.109464539226,0.0,0.0,0.0,2019-03-17T21:30:16.895904,19,EyesClosed
-21524.998131394164,-8463.756258935484,6794.349169057509,3736.339954893584,21369.89937661879,15766.249986439943,5215.287830267886,11350.126427427105,0.0,0.0,0.0,2019-03-17T21:30:16.903636,19,EyesClosed
-21423.38710110034,-8361.966414686014,6879.621074154506,3764.056118018165,21494.979738590686,15566.067763098214,5327.113607777787,11372.880503282608,0.0,0.0,0.0,2019-03-17T21:30:16.904365,19,EyesClosed
-21461.34036318545,-8393.460022623542,6938.272051605231,3994.3684928856487,21445.00123798862,16013.952018493655,5308.069921501866,11562.557406730344,0.0,0.0,0.0,2019-03-17T21:30:16.912391,19,EyesClosed
-21572.629698828423,-8507.789195512438,6861.35969893452,3998.7047313099783,21310.443736367673,16270.147713440385,5193.427824190596,11560.769267173919,0.0,0.0,0.0,2019-03-17T21:30:16.913179,19,EyesClosed
-21547.528689805116,-8491.785346482438,6793.544506257118,3770.7839930992122,21347.614687396846,15858.361525340264,5205.1848417740875,11371.718212570931,0.018000000000000002,1.018,0.182,2019-03-17T21:30:16.919111,19,EyesClosed
-21431.277266893063,-8371.778830501895,6867.729946104282,3750.6003678560696,21491.62697692239,15551.494425713352,5327.471235689072,11348.718267526421,0.0,0.0,0.0,2019-03-17T21:30:16.920732,19,EyesClosed
-21444.867127521888,-8382.887647496182,6941.535406295706,3977.1129461661517,21469.05171502253,15923.181584260654,5328.231195000553,11530.169729014604,0.0,0.0,0.0,2019-03-17T21:30:16.926517,19,EyesClosed
-21556.111759675954,-8498.40146284121,6884.516106190218,4033.729914871444,21330.806175566457,16281.658861834869,5211.778606388403,11580.081174383304,0.0,0.0,0.0,2019-03-17T21:30:16.927163,19,EyesClosed
-21559.799797511077,-8504.212916399589,6800.182974360344,3813.140548842019,21336.21529772464,15955.815131165402,5198.1440422706655,11403.658855397565,0.0,0.0,0.0,2019-03-17T21:30:16.935211,19,EyesClosed
-21450.186842702253,-8392.923580756615,6845.333498160065,3724.0017919542543,21475.421962192293,15548.164015789513,5306.862927301279,11329.115787639117,0.0,0.0,0.0,2019-03-17T21:30:16.935837,19,EyesClosed
-21427.544525569025,-8365.296824609855,6938.786141727704,3931.805960155244,21494.68916591277,15824.096301090278,5342.58101494086,11497.670292576588,0.0,0.0,0.0,2019-03-17T21:30:16.941900,19,EyesClosed
-21535.369340821428,-8474.239227085021,6901.883411631991,4042.6929643980225,21352.84499559939,16259.575338313025,5231.783417675903,11588.23956110949,0.0,0.0,0.0,2019-03-17T21:30:16.942713,19,EyesClosed
-21565.7900650251,-8513.578297326363,6805.592096518529,3848.1210289145747,21313.751794547057,16042.964582796645,5179.323873439297,11431.799701666798,0.0,0.0,0.0,2019-03-17T21:30:16.949289,19,EyesClosed
-21458.635802106357,-8405.462909396043,6830.536643330651,3709.048474913654,21447.079950222964,15574.069687613213,5284.153554934687,11318.833985189674,0.0,0.0,0.0,2019-03-17T21:30:16.950150,19,EyesClosed
-21409.86429570488,-8354.79150471586,6933.0864468916,3888.823555567689,21505.932093373787,15734.935192458057,5354.896826135734,11465.282614860847,0.018000000000000002,1.024,0.182,2019-03-17T21:30:16.956345,19,EyesClosed
-21519.521954002616,-8462.683375201628,6920.435359529896,4049.331432501249,21377.074286588944,16224.125471606909,5263.344080846797,11600.510668815456,0.0,0.0,0.0,2019-03-17T21:30:16.964106,19,EyesClosed
-21583.537350122613,-8520.77555904097,6820.1654339033885,3895.5290789042806,21306.509829343537,16137.043075209032,5190.253876477942,11482.962844724994,0.0,0.0,0.0,2019-03-17T21:30:16.965468,19,EyesClosed
-21486.8213518645,-8429.759255618961,6824.278154883165,3720.179643652397,21430.42790060376,15645.461159403463,5281.918380489156,11345.633726791588,0.0,0.0,0.0,2019-03-17T21:30:16.971317,19,EyesClosed
-21413.9546649402,-8357.2725483504,6922.022333386223,3850.780886504756,21512.39174752137,15676.574787685251,5364.597483229338,11449.256414086392,0.0,0.0,0.0,2019-03-17T21:30:16.971960,19,EyesClosed
-21487.648366409347,-8428.664020140652,6931.968859668835,4051.0525168243075,21402.398813056807,16178.77378210709,5289.115642203766,11610.188974164603,0.0,0.0,0.0,2019-03-17T21:30:16.978711,19,EyesClosed
-21559.64333529989,-8502.625942543262,6839.991431235246,3952.7942481987775,21305.325186887407,16224.371340795917,5196.244143991965,11530.102673781237,0.0,0.0,0.0,2019-03-17T21:30:16.979357,19,EyesClosed
-21484.20619776323,-8428.485206185009,6814.801015234115,3743.7607340527456,21400.655376989293,15731.91770695659,5256.146819132187,11359.111828698138,0.0,0.0,0.0,2019-03-17T21:30:16.986818,19,EyesClosed
-21389.05482161699,-8331.88096664917,6910.89116464748,3827.1327408710413,21512.77172717711,15635.268763931843,5358.808381415413,11418.031027082328,0.0,0.0,0.0,2019-03-17T21:30:16.987462,19,EyesClosed
-21452.287906681053,-8391.314255155832,6948.732668010315,4048.683231912045,21434.630028561358,16117.820574977468,5312.540270392928,11593.894552456684,0.0,0.0,0.0,2019-03-17T21:30:16.994884,19,EyesClosed
-21554.770655008633,-8494.378148839254,6861.583216379073,4000.2470016773946,21315.36112014784,16283.335242669016,5203.687274895582,11555.38249676019,0.02,1.02,0.18,2019-03-17T21:30:16.995533,19,EyesClosed
-21515.431584767295,-8457.408363510176,6800.048863893612,3759.228141215818,21374.48148423213,15809.969998594523,5231.448141509073,11361.838741521686,0.0,0.0,0.0,2019-03-17T21:30:17.001266,19,EyesClosed
-21409.81959221597,-8354.053897148837,6878.659949142927,3770.60517914357,21501.841724138467,15573.533245746285,5342.603366685315,11369.170113703027,0.0,0.0,0.0,2019-03-17T21:30:17.001739,19,EyesClosed
-21447.39287464534,-8388.386176632188,6941.825978973625,3996.2460394198943,21456.355924171916,16001.479745087594,5324.8784333322565,11554.756647915441,0.0,0.0,0.0,2019-03-17T21:30:17.010127,19,EyesClosed
-21569.12047494894,-8513.265372903988,6865.651233869939,4000.6493330775897,21315.964617248133,16276.719126310245,5204.357827229242,11560.009307862438,0.0,0.0,0.0,2019-03-17T21:30:17.010775,19,EyesClosed
-21551.01556194014,-8495.49573606202,6793.745671957216,3771.879228577522,21344.753664106567,15883.708403552582,5209.655190665149,11376.456782395457,0.0,0.0,0.0,2019-03-17T21:30:17.018180,19,EyesClosed
-21433.646551805326,-8379.579589316796,6858.409268666419,3730.886129246489,21483.58034891848,15548.476940211885,5328.141788022732,11341.230433133893,0.0,0.0,0.0,2019-03-17T21:30:17.018824,19,EyesClosed
-21434.317104138983,-8373.857542736238,6944.150560396977,3957.823390701222,21479.981718061175,15903.176772973155,5349.53240746646,11526.057008034828,0.0,0.0,0.0,2019-03-17T21:30:17.024889,19,EyesClosed
-21556.31292537605,-8493.819355227872,6888.382957980986,4025.236251978428,21335.969428535635,16278.395507144394,5233.459798510051,11583.635101751697,0.0,0.0,0.0,2019-03-17T21:30:17.030874,19,EyesClosed
-21565.83476851401,-8520.417931129687,6799.579477260051,3808.2008133173963,21325.30764643045,15979.776201221492,5205.430710963096,11410.990227578906,0.0,0.0,0.0,2019-03-17T21:30:17.031519,19,EyesClosed
-21451.460892136205,-8407.94395303058,6842.919509758892,3710.7472074922575,21464.514310898103,15565.754838675839,5318.284668717942,11332.580308029688,0.022,1.014,0.184,2019-03-17T21:30:17.039133,19,EyesClosed
-21428.86327849189,-8380.697176539561,6934.114627136544,3910.4600442004257,21488.385973976372,15811.311103261842,5359.814209915902,11492.909371007607,0.0,0.0,0.0,2019-03-17T21:30:17.039782,19,EyesClosed
-21532.150689619863,-8488.276122602954,6904.811490155636,4036.7474003729108,21351.861518843358,16263.084562192507,5254.582197020316,11598.051976925371,0.0,0.0,0.0,2019-03-17T21:30:17.047186,19,EyesClosed
-21567.242928414697,-8525.335314909855,6810.978866932258,3858.3134243861946,21309.16968693372,16082.258949549074,5201.452100450051,11453.726762977454,0.0,0.0,0.0,2019-03-17T21:30:17.047932,19,EyesClosed
-21458.1664154728,-8407.273400696922,6830.4919398417405,3708.713198746824,21440.396778630828,15605.451536828465,5300.112700475776,11331.10509289564,0.0,0.0,0.0,2019-03-17T21:30:17.054214,19,EyesClosed
-21408.500839293105,-8351.192873858556,6927.878490433513,3875.5466193612365,21497.840761880965,15729.213145877498,5363.658709962215,11457.258338601392,0.0,0.0,0.0,2019-03-17T21:30:17.054897,19,EyesClosed
-21508.279026541597,-8455.933148376125,6922.3576095530525,4048.8843976121425,21376.113161577363,16221.867945416921,5271.167191406154,11592.017005922438,0.0,0.0,0.0,2019-03-17T21:30:17.061782,19,EyesClosed
-21572.27207091714,-8522.474291619576,6829.776684019171,3913.879861102088,21303.961730475632,16167.8661308129,5195.081853280289,11485.577998826266,0.0,0.0,0.0,2019-03-17T21:30:17.062625,19,EyesClosed
-21483.692107640756,-8437.135331289212,6821.931221715358,3723.5547570651484,21419.09556616492,15664.258976490377,5280.66668279966,11333.00499117434,0.0,0.0,0.0,2019-03-17T21:30:17.070358,19,EyesClosed
-21408.098507892908,-8362.055821663836,6923.363438053541,3843.9636044458875,21511.140049831876,15664.48249393493,5371.258303077019,11427.552870220288,0.0,0.0,0.0,2019-03-17T21:30:17.071316,19,EyesClosed
-21487.827180364988,-8437.202386522578,6943.5470632966835,4048.102086556207,21409.774888727057,16166.256805212119,5302.8619650437795,11592.218171622537,0.02,1.014,0.182,2019-03-17T21:30:17.077772,19,EyesClosed
-21574.41783838485,-8529.06805623389,6846.652251082927,3956.9516726674647,21302.777088019502,16233.803776956056,5203.083777795288,11520.04438877635,0.0,0.0,0.0,2019-03-17T21:30:17.078629,19,EyesClosed
-21501.372337504905,-8460.224683311544,6817.259707124199,3742.240815429785,21395.961510653677,15744.769960018393,5265.489848314506,11349.344116371169,0.0,0.0,0.0,2019-03-17T21:30:17.084010,19,EyesClosed
-21405.9527404252,-8362.905187953138,6907.98543786829,3803.6187057040584,21510.000110864654,15610.346568864175,5369.693680965148,11399.143803017594,0.0,0.0,0.0,2019-03-17T21:30:17.091461,19,EyesClosed
-21457.138235227852,-8412.57076413283,6957.494551836795,4029.0584002802852,21441.67082806478,16083.488295494117,5330.555776423905,11581.981072662005,0.0,0.0,0.0,2019-03-17T21:30:17.092278,19,EyesClosed
-21557.139939920897,-8513.623000815272,6876.424774697397,3996.7154260534558,21320.323207416917,16276.115629209951,5222.909775127146,11558.221168306014,0.0,0.0,0.0,2019-03-17T21:30:17.099401,19,EyesClosed
-21516.280951056597,-8475.356814307788,6819.718399014283,3760.9939290277875,21371.866330130855,15825.0350743574,5249.37424056223,11370.690032325987,0.0,0.0,0.0,2019-03-17T21:30:17.100144,19,EyesClosed
-21396.85558043189,-8357.876045450694,6905.750263422759,3764.659615118458,21507.362605018927,15576.237806825378,5367.458506519617,11375.62976785061,0.0,0.0,0.0,2019-03-17T21:30:17.106307,19,EyesClosed
-21429.846755247923,-8382.150039929156,6971.866723521558,3988.4676323494477,21466.414209176804,15988.158105392231,5351.856988889813,11558.869368895217,0.0,0.0,0.0,2019-03-17T21:30:17.107033,19,EyesClosed
-21541.270201357627,-8493.417023827675,6905.3926355114745,4012.540461127813,21329.107442987854,16293.058251507075,5234.152702588165,11581.355223817256,0.0,0.0,0.0,2019-03-17T21:30:17.113618,19,EyesClosed
-21521.31009355904,-8481.749413222005,6828.68144854086,3785.4020339729827,21349.626344397824,15920.298209225919,5232.476321754018,11400.619018151643,0.018000000000000002,1.018,0.184,2019-03-17T21:30:17.114025,19,EyesClosed
-21400.163638611277,-8359.865350707216,6891.825126627104,3732.3613443805393,21491.090535055464,15562.089152585168,5351.477009234072,11355.714363540932,0.0,0.0,0.0,2019-03-17T21:30:17.121693,19,EyesClosed
-21394.70981296418,-8356.736106483473,6976.292368923709,3950.5143702643363,21488.54243618756,15888.715194310571,5367.838486175357,11531.354371470736,0.0,0.0,0.0,2019-03-17T21:30:17.121997,19,EyesClosed
-21509.44131725327,-8471.57936949484,6926.000943899267,4035.674516639056,21348.665219386246,16290.197228216795,5253.330499330819,11603.34934036128,0.0,0.0,0.0,2019-03-17T21:30:17.129667,19,EyesClosed
-21535.83872745499,-8498.379111096754,6828.659096796406,3823.355296058094,21327.78869006499,16013.63909407128,5212.5832691887945,11433.319620289758,0.0,0.0,0.0,2019-03-17T21:30:17.129931,19,EyesClosed
-21421.062519676987,-8381.546542828864,6867.21585598181,3710.300172603151,21465.430732420773,15577.780077192794,5321.346857708319,11341.096322667161,0.0,0.0,0.0,2019-03-17T21:30:17.136336,19,EyesClosed
-21390.37357453985,-8349.583548257775,6966.859932763569,3909.387160466571,21500.567674704515,15798.50355368895,5370.319529809896,11499.257266432915,0.0,0.0,0.0,2019-03-17T21:30:17.136666,19,EyesClosed
-21503.16047706133,-8463.845665913304,6938.048534160678,4047.364478989182,21363.238556771106,16255.104989421963,5262.651176768682,11608.736110775008,0.0,0.0,0.0,2019-03-17T21:30:17.143467,19,EyesClosed
-21545.159404892853,-8512.706579292606,6840.63963182445,3874.652549583024,21310.577846834403,16097.793411945513,5198.993408559967,11470.244702129925,0.0,0.0,0.0,2019-03-17T21:30:17.151304,19,EyesClosed
-21442.54254609854,-8408.301580941867,6849.2227016952875,3713.4517685713495,21435.72526403967,15611.262990386844,5291.306113160385,11339.24112787737,0.0,0.0,0.0,2019-03-17T21:30:17.151734,19,EyesClosed
-21382.483408747128,-8342.162769098613,6954.097086679589,3875.2560466833174,21506.937921874276,15711.264695079888,5366.944416397145,11465.304966605303,0.016,1.022,0.182,2019-03-17T21:30:17.159591,19,EyesClosed
-21471.10807551242,-8434.006087065469,6958.008641959267,4062.675423941067,21393.703984463693,16210.155631322341,5285.271142157453,11615.732206789518,0.0,0.0,0.0,2019-03-17T21:30:17.160412,19,EyesClosed
-21540.242021112685,-8509.175003668666,6858.588082622062,3936.4327712574927,21309.68377705619,16183.288834487063,5200.26745799392,11512.914182295106,0.0,0.0,0.0,2019-03-17T21:30:17.166266,19,EyesClosed
-21451.14796771383,-8425.065389283347,6839.87967251297,3733.523635092215,21414.558162040492,15681.648633676605,5272.620054795749,11351.311069883237,0.0,0.0,0.0,2019-03-17T21:30:17.167191,19,EyesClosed
-21372.64864118679,-8341.000478386937,6938.540272538695,3841.549616044714,21510.268331798117,15644.47768264743,5364.597483229338,11432.894937145107,0.0,0.0,0.0,2019-03-17T21:30:17.174122,19,EyesClosed
-21450.008028746608,-8415.342380445289,6969.229217675832,4057.936854116542,21418.022682431067,16143.838005523445,5305.231249956042,11608.40083460818,0.0,0.0,0.0,2019-03-17T21:30:17.174931,19,EyesClosed
-21543.17009963633,-8514.53942233794,6874.83780084107,3980.4657078344476,21305.146372931766,16242.364495082438,5203.150833028654,11548.81108389033,0.0,0.0,0.0,2019-03-17T21:30:17.182360,19,EyesClosed
-21473.186787746763,-8448.199444794589,6836.929242244869,3759.921045293933,21392.541693752017,15760.952623004036,5260.863037212257,11376.590892862188,0.0,0.0,0.0,2019-03-17T21:30:17.183145,19,EyesClosed
-21374.749705165592,-8343.548577254842,6924.905708420958,3811.7770924302454,21511.49767774316,15601.696443759973,5369.671329220692,11413.940657847006,0.0,0.0,0.0,2019-03-17T21:30:17.190878,19,EyesClosed
-21432.953647727212,-8395.85165928026,6965.563531585161,4030.6900776255225,21441.00027573112,16056.755609125568,5326.286593232941,11590.34062508829,0.0,0.0,0.0,2019-03-17T21:30:17.191533,19,EyesClosed
-21539.236192612196,-8502.49183207653,6880.068109043612,4007.1983942029947,21310.622550323314,16275.333318154017,5208.783472631392,11571.699270212564,0.018000000000000002,1.024,0.184,2019-03-17T21:30:17.197319,19,EyesClosed
-21495.71734615771,-8469.2994915604,6817.192651890833,3772.0803942776197,21356.108350289865,15836.702684963071,5223.580327460805,11379.496619641379,0.0,0.0,0.0,2019-03-17T21:30:17.198093,19,EyesClosed
-21376.828417399935,-8354.456228549032,6895.60257144005,3763.720841851335,21492.49869495615,15557.12706531609,5337.7306863940585,11369.170113703027,0.0,0.0,0.0,2019-03-17T21:30:17.204082,19,EyesClosed
-21408.99257767112,-8375.89155148167,6966.837581019114,3993.1167951961515,21462.72617134168,15956.82095966589,5332.76859912498,11553.57200545931,0.0,0.0,0.0,2019-03-17T21:30:17.211713,19,EyesClosed
-21528.68616922929,-8493.752299994505,6903.179812810399,4036.1662550170727,21325.911143530746,16291.404222417383,5219.378199503208,11591.145287888681,0.0,0.0,0.0,2019-03-17T21:30:17.212649,19,EyesClosed
-21522.45003252626,-8490.958331937592,6824.546375816629,3814.2804878092397,21339.858632070856,15941.018276335988,5208.291734253376,11412.219573523947,0.0,0.0,0.0,2019-03-17T21:30:17.218860,19,EyesClosed
-21403.38228981284,-8373.566970058318,6879.844591599059,3740.1173997065307,21479.11000002742,15558.736390916873,5318.776407095958,11349.254709393348,0.0,0.0,0.0,2019-03-17T21:30:17.219732,19,EyesClosed
-21393.458115274683,-8360.714716996517,6969.497438609295,3956.750506967367,21487.022517564597,15864.217682387554,5344.190340541642,11520.334961454268,0.0,0.0,0.0,2019-03-17T21:30:17.226467,19,EyesClosed
-21506.15561081834,-8476.496753275009,6926.93971716639,4057.132191316151,21350.22984149812,16285.235140947718,5234.689144455093,11604.466927584044,0.0,0.0,0.0,2019-03-17T21:30:17.227299,19,EyesClosed
-21532.463614042237,-8509.06324494639,6827.87678574047,3850.8032382492115,21320.054986483454,16034.113291992342,5187.772832843403,11439.22048082596,0.0,0.0,0.0,2019-03-17T21:30:17.234451,19,EyesClosed
-21425.91284822379,-8402.445423894576,6850.653213340428,3720.3584576080393,21452.667886336792,15574.561425991229,5292.490755616517,11330.121616139606,0.016,1.016,0.19,2019-03-17T21:30:17.235005,19,EyesClosed
-21386.70788844918,-8357.294900094856,6945.916348208946,3905.1179772756077,21497.192561291762,15768.731030074481,5352.304023778918,11482.001719713417,0.0,0.0,0.0,2019-03-17T21:30:17.242776,19,EyesClosed
-21492.342232744963,-8457.788343165916,6928.772560211726,4054.7852581483435,21368.200644040186,16245.940774195287,5255.029231909422,11608.892572986195,0.0,0.0,0.0,2019-03-17T21:30:17.243512,19,EyesClosed
-21535.995189666177,-8504.190564655133,6837.957422489813,3895.8196515821996,21315.964617248133,16124.079063424953,5194.9700945580125,11484.572170325777,0.0,0.0,0.0,2019-03-17T21:30:17.250659,19,EyesClosed
-21442.09551120943,-8414.470662411532,6839.320878901587,3722.727742520302,21436.507575095606,15627.982095239413,5285.964046235567,11345.700782024955,0.0,0.0,0.0,2019-03-17T21:30:17.251577,19,EyesClosed
-21372.98391735362,-8343.682687721574,6941.691868506893,3870.3386629031497,21512.078823098997,15696.937226884036,5366.340919296851,11462.019260170373,0.0,0.0,0.0,2019-03-17T21:30:17.257211,19,EyesClosed
-21454.545432871037,-8422.673752626628,6951.303118622675,4058.875627383665,21400.476563033648,16197.504543960637,5287.059281713878,11616.760387034463,0.0,0.0,0.0,2019-03-17T21:30:17.258031,19,EyesClosed
-21527.948561662266,-8500.63663728674,6855.771762820693,3943.451219016459,21310.51079160104,16200.991416095665,5196.668827136616,11522.167804499604,0.0,0.0,0.0,2019-03-17T21:30:17.264498,19,EyesClosed
-21459.798092818033,-8433.067313798347,6827.87678574047,3731.0202397132207,21406.444478803216,15695.126735583155,5256.996185421489,11347.041886692274,0.0,0.0,0.0,2019-03-17T21:30:17.265233,19,EyesClosed
-21367.798312639992,-8337.513606251909,6926.045647388179,3825.635173992536,21513.68814869978,15631.536022607806,5356.1038203363205,11421.607306195177,0.0,0.0,0.0,2019-03-17T21:30:17.271538,19,EyesClosed
-21437.20047917372,-8403.339493672787,6953.13596166801,4036.4568276949917,21417.843868475422,16117.172374388263,5292.535459105427,11591.279398355413,0.018000000000000002,1.018,0.19,2019-03-17T21:30:17.278825,19,EyesClosed
-21531.949523919764,-8504.279971632955,6861.270291956698,3974.229571131417,21302.1288874303,16245.203166628262,5185.068271764311,11540.13860704167,0.0,0.0,0.0,2019-03-17T21:30:17.279494,19,EyesClosed
-21479.512331427613,-8462.795133923904,6813.281096611154,3744.0513067306647,21373.207434798176,15762.472541626996,5222.820368149325,11355.446142607469,0.0,0.0,0.0,2019-03-17T21:30:17.286764,19,EyesClosed
-21369.31823126295,-8353.226882603989,6906.666684945427,3781.602237415581,21503.20518055024,15569.040545110769,5335.942546837634,11383.92226504353,0.0,0.0,0.0,2019-03-17T21:30:17.287410,19,EyesClosed
-21415.072252162965,-8390.71075805554,6963.238950161809,4010.0594174932744,21445.984714744656,16017.46124237314,5308.472252902062,11571.363994045734,0.0,0.0,0.0,2019-03-17T21:30:17.294869,19,EyesClosed
-21527.12154711742,-8507.25275364551,6880.358681721531,3999.576449343735,21310.287274156486,16267.823132017033,5189.024530532901,11565.709002698542,0.0,0.0,0.0,2019-03-17T21:30:17.295521,19,EyesClosed
-21494.15272404584,-8484.185753367634,6813.191689633333,3768.012376786754,21348.218184497142,15849.867862447247,5201.630914405694,11379.451916152468,0.0,0.0,0.0,2019-03-17T21:30:17.301374,19,EyesClosed
-21389.434801272728,-8371.957644457538,6880.939827077369,3741.4361526293937,21482.909796584823,15539.580945918673,5315.378941938751,11352.227491405903,0.0,0.0,0.0,2019-03-17T21:30:17.302015,19,EyesClosed
-21405.52805728055,-8374.66220553663,6958.634490804016,3970.6532920185678,21464.73782834266,15917.995979547022,5322.062113530888,11536.383513973178,0.0,0.0,0.0,2019-03-17T21:30:17.309356,19,EyesClosed
-21516.25859931214,-8490.578352281851,6902.665722687927,4025.7503421008996,21331.11909998883,16273.053440219575,5210.325742998808,11585.043261652383,0.0,0.0,0.0,2019-03-17T21:30:17.310079,19,EyesClosed
-21521.488907514682,-8504.816413499882,6812.96817218878,3797.4719759788486,21330.001512766066,15936.167947789187,5188.376329943697,11400.529611173823,0.016,1.016,0.186,2019-03-17T21:30:17.318909,19,EyesClosed
-21405.192781113718,-8392.431842378599,6861.78438207917,3712.244774370763,21471.48805516816,15533.993009804846,5302.750206321502,11329.629877761588,0.0,0.0,0.0,2019-03-17T21:30:17.319550,19,EyesClosed
-21381.05289710199,-8365.855618221238,6956.622833803039,3928.497901975859,21492.610453678426,15820.698835933072,5343.318622507885,11505.5157548804,0.0,0.0,0.0,2019-03-17T21:30:17.325153,19,EyesClosed
-21489.682375154778,-8468.852456671293,6917.84255717308,4043.0058888203966,21356.667143901246,16258.614213301447,5237.930147401113,11600.801241493375,0.0,0.0,0.0,2019-03-17T21:30:17.325852,19,EyesClosed
-21522.137108103885,-8506.246925145022,6818.2878873691425,3847.4728283253708,21320.256152183552,16037.577812382915,5191.55027765635,11443.847291928209,0.0,0.0,0.0,2019-03-17T21:30:17.331476,19,EyesClosed
-21411.026586416556,-8400.746691315971,6836.63866956695,3708.8920127024667,21449.940973513243,15571.342774789666,5292.356645149785,11328.735807983376,0.0,0.0,0.0,2019-03-17T21:30:17.339108,19,EyesClosed
-21371.866330130855,-8351.50579828093,6930.672458490427,3885.426090410482,21497.371375247407,15731.068340667289,5348.258358032508,11468.210693384492,0.0,0.0,0.0,2019-03-17T21:30:17.339945,19,EyesClosed
-21471.44335167925,-8450.747543662494,6922.312906064142,4051.4324964800476,21374.66029818777,16223.745491951167,5257.197351121587,11603.371692105735,0.0,0.0,0.0,2019-03-17T21:30:17.347668,19,EyesClosed
-21522.69590171527,-8508.213878657089,6828.703800285316,3901.9216778184987,21309.50496310055,16136.19370891973,5185.247085719953,11484.482763347956,0.0,0.0,0.0,2019-03-17T21:30:17.348409,19,EyesClosed
-21429.7573482701,-8415.85647056776,6826.245108395232,3717.1621581509303,21423.744729011625,15634.955839509468,5269.177886149631,11337.05065692075,0.0,0.0,0.0,2019-03-17T21:30:17.354360,19,EyesClosed
-21364.356143993875,-8345.381420300177,6925.933888665902,3848.0316219367533,21505.865038140422,15671.81386611627,5354.472142991083,11442.752056449897,0.014,1.016,0.182,2019-03-17T21:30:17.355141,19,EyesClosed
-21453.405493903818,-8431.055656797369,6940.976612684323,4045.732801643944,21401.035356645032,16177.477380928682,5282.812450267369,11606.545639818387,0.0,0.0,0.0,2019-03-17T21:30:17.361714,19,EyesClosed
-21531.658951241847,-8516.416968872187,6844.014745237201,3939.4726085034144,21305.325186887407,16210.289741789073,5187.817536332314,11525.364103956712,0.0,0.0,0.0,2019-03-17T21:30:17.362391,19,EyesClosed
-21464.067276009,-8452.446276241097,6809.794224476126,3720.4478645858608,21394.84392343091,15700.781726930349,5242.489903269995,11346.885424481086,0.0,0.0,0.0,2019-03-17T21:30:17.369797,19,EyesClosed
-21365.02669632753,-8348.734181968473,6909.773577424715,3805.5409557272146,21512.235285310184,15607.507897318352,5348.973613855078,11413.001884579884,0.0,0.0,0.0,2019-03-17T21:30:17.370447,19,EyesClosed
-21423.52121156707,-8407.09458674128,6951.2360633893095,4029.41602819157,21433.400682616317,16096.049975877999,5303.376055166252,11595.481526313011,0.0,0.0,0.0,2019-03-17T21:30:17.377039,19,EyesClosed
-21532.798890209066,-8523.390713142242,6861.762030334715,3977.5599810552576,21311.36015789034,16254.814416744044,5196.512364925428,11555.38249676019,0.0,0.0,0.0,2019-03-17T21:30:17.377993,19,EyesClosed
-21480.026421550087,-8478.039023642425,6813.392855333431,3751.025051000721,21379.152998823287,15792.848562341758,5234.0632956103445,11372.813448049243,0.0,0.0,0.0,2019-03-17T21:30:17.384244,19,EyesClosed
