eeg1,eeg2,eeg3,eeg4,eeg5,eeg6,eeg7,eeg8,accx,accy,accz,iso_utc,session_id,command_name
0.0,0.0,0.0,0.0,0.0,0.0,0.0,0.0,0.0,0.0,0.0,2019-03-17T21:15:56.811614,3,EyesClosed
6292.083119402304,11448.809379197286,-6035.730962244387,-6481.04476702747,35645.53387707876,-4796.639656619985,5161.8671610197025,4224.546757286401,-0.01,1.0,0.256,2019-03-17T21:15:56.821935,3,EyesClosed
6743.029563788124,11909.83646033245,-5521.752598494601,-5980.633912162056,36100.39187674426,-4465.766783448074,5639.859216196444,4716.061617858603,0.0,0.0,0.0,2019-03-17T21:15:56.829153,3,EyesClosed
6365.933283082639,11528.470996436,-5869.948073619375,-6348.409515429677,35948.33295921481,-3999.8223185327433,5324.476101932061,4454.970890876161,0.0,0.0,0.0,2019-03-17T21:15:56.830019,3,EyesClosed
5862.884922371498,11020.41584496687,-6427.445283823644,-6901.1681558094215,35470.29620054915,-4266.746850818021,4804.820395090627,3932.074181088708,0.0,0.0,0.0,2019-03-17T21:15:56.835911,3,EyesClosed
6161.303062594302,11323.080816636184,-6162.800629472808,-6621.190204762245,35544.593399118596,-4778.668854077918,5038.977270004424,4121.81813976981,0.0,0.0,0.0,2019-03-17T21:15:56.836893,3,EyesClosed
6705.188060425289,11867.368145867365,-5566.545494383036,-6037.966136689918,36029.201570654106,-4575.1785725568025,5592.2500005066395,4673.481544671243,0.0,0.0,0.0,2019-03-17T21:15:56.843697,3,EyesClosed
6483.503458917554,11644.722419348052,-5745.560615725591,-6236.159054775126,36021.49021881702,-4026.3091357122826,5445.399039435272,4576.4302702463,0.0,0.0,0.0,2019-03-17T21:15:56.844345,3,EyesClosed
5922.921707978453,11078.485677061759,-6355.293852721912,-6841.6454603249385,35542.827611306624,-4148.170846482617,4886.5160210747745,4025.906804312087,-0.012,1.004,0.264,2019-03-17T21:15:56.852016,3,EyesClosed
6068.520971360323,11226.27541140025,-6256.1862178070805,-6718.5544036095625,35487.68585773538,-4710.74190267824,4976.638254718573,4064.351804775215,0.0,0.0,0.0,2019-03-17T21:15:56.852737,3,EyesClosed
6648.928719631282,11814.193345808191,-5631.991402148175,-6096.080672273716,35960.02292156493,-4660.4057741648885,5555.928415766766,4625.939384214805,0.0,0.0,0.0,2019-03-17T21:15:56.859036,3,EyesClosed
6569.356509370388,11733.391789602256,-5660.109896672952,-6142.147617596104,36063.75736758201,-4097.342979591248,5541.0645057039865,4658.5282276306425,0.0,0.0,0.0,2019-03-17T21:15:56.859790,3,EyesClosed
5970.173295756972,11126.698389851856,-6295.949971193072,-6778.05474734959,35590.593289207616,-4082.4343660395584,4951.0231555727905,4093.0737964002847,0.0,0.0,0.0,2019-03-17T21:15:56.866353,3,EyesClosed
5971.000310301818,11124.642029361967,-6352.164608498169,-6814.77866348966,35415.02033651118,-4644.893663512906,4885.241971640822,3981.292722379294,0.0,0.0,0.0,2019-03-17T21:15:56.867031,3,EyesClosed
6569.043584948014,11734.330562869378,-5724.482920704237,-6185.778222772864,35858.18837382655,-4736.155836123924,5464.062746055454,4529.044572001048,0.0,0.0,0.0,2019-03-17T21:15:56.874657,3,EyesClosed
6640.680925927273,11809.275962028023,-5597.636770920369,-6078.311035431748,36073.2121554866,-4193.187259815605,5594.775747630089,4695.967399593282,0.0,0.0,0.0,2019-03-17T21:15:56.875337,3,EyesClosed
6071.829029539708,11233.919708003963,-6186.851106506719,-6671.7722024646055,35670.38901691306,-4017.323734441249,5052.343613188697,4189.92390512513,0.0,0.0,0.0,2019-03-17T21:15:56.881697,3,EyesClosed
5923.726370778843,11082.464287574803,-6390.833126405851,-6853.827161053081,35400.75992354869,-4532.643202858353,4854.128343359035,3956.236416844895,0.0,0.0,0.0,2019-03-17T21:15:56.888466,3,EyesClosed
6477.624950125808,11638.195709967102,-5824.462273652825,-6277.57683725081,35763.260515124864,-4780.725214567807,5372.778221699979,4431.792131876008,-0.014,1.008,0.268,2019-03-17T21:15:56.889374,3,EyesClosed
6690.458260829242,11857.01928818456,-5552.888578520844,-6023.6833719829765,36072.5639548974,-4297.726368633076,5633.5113207711365,4722.051885372625,0.0,0.0,0.0,2019-03-17T21:15:56.897411,3,EyesClosed
6155.469257291467,11321.359732313125,-6089.665721615043,-6565.44495409071,35742.60750324816,-3994.234382418917,5144.857483489213,4276.603970122811,0.0,0.0,0.0,2019-03-17T21:15:56.898175,3,EyesClosed
5832.374791190004,10999.248742967695,-6469.198342466158,-6926.2915165771865,35353.843611937,-4464.246864825113,4780.61345584553,3891.5057649023256,0.0,0.0,0.0,2019-03-17T21:15:56.905453,3,EyesClosed
6346.867245062262,11517.786862586363,-5956.404621172503,-6405.607629490809,35646.785574768255,-4812.822319605627,5242.445199781085,4309.013999583006,0.0,0.0,0.0,2019-03-17T21:15:56.906286,3,EyesClosed
6728.791502570093,11896.805393315006,-5517.192842625719,-5986.668883164988,36066.75250133902,-4385.68048306471,5655.907768715354,4741.721420493295,0.0,0.0,0.0,2019-03-17T21:15:56.911683,3,EyesClosed
6268.278511557402,11430.860928399674,-5963.959510798396,-6446.690135799663,35822.962024564986,-3981.315074123749,5257.778496477425,4390.4861081226,0.0,0.0,0.0,2019-03-17T21:15:56.912393,3,EyesClosed
5854.123038545017,11018.404187965893,-6434.195510649146,-6898.821222641614,35393.495606600714,-4326.38130502478,4818.052627808169,3940.9254718930097,0.0,0.0,0.0,2019-03-17T21:15:56.918732,3,EyesClosed
6253.258139283435,11426.703503930987,-6054.595834564667,-6497.339188735389,35572.24250700981,-4777.461859877331,5165.018756987901,4237.801341748398,0.0,0.0,0.0,2019-03-17T21:15:56.919672,3,EyesClosed
6728.053895003069,11904.673207363274,-5526.401761341305,-5977.728185382865,36036.77881202445,-4470.058318383493,5665.273149642128,4743.2860426051675,0.0,0.0,0.0,2019-03-17T21:15:56.926889,3,EyesClosed
6384.261713535991,11556.38832526068,-5840.935509316387,-6308.735169021508,35917.30873791084,-3978.2081816444615,5392.000721931544,4518.695714318242,-0.008,1.006,0.274,2019-03-17T21:15:56.927532,3,EyesClosed
5861.677928170911,11027.076664814553,-6413.341333072345,-6874.301358974142,35435.7627553657,-4218.7576554724765,4856.497628271298,3984.801946258777,0.0,0.0,0.0,2019-03-17T21:15:56.934919,3,EyesClosed
6134.838597159219,11300.952589625429,-6179.5867895587435,-6622.1736815182785,35488.28935483567,-4750.907987464427,5064.413555194564,4138.96192776703,0.0,0.0,0.0,2019-03-17T21:15:56.935639,3,EyesClosed
6675.303778088543,11850.045543914503,-5586.77382311509,-6038.5919855346665,35965.16382278965,-4592.5458779985765,5613.39475076136,4676.454326683799,0.0,0.0,0.0,2019-03-17T21:15:56.941117,3,EyesClosed
6479.457793171143,11655.004221797493,-5741.961984868287,-6208.621705606188,35977.77020666244,-4041.0389353083297,5482.167659064253,4594.468128021733,0.0,0.0,0.0,2019-03-17T21:15:56.948204,3,EyesClosed
5922.809949256176,11085.995863198741,-6346.599024128798,-6809.146023886922,35509.59056730158,-4122.8463200147535,4919.753065079816,4043.6540894096006,0.0,0.0,0.0,2019-03-17T21:15:56.948956,3,EyesClosed
6039.866034968619,11207.254076868783,-6269.731374946997,-6711.9829907397025,35435.49453443224,-4685.5291349326535,4974.581894228684,4049.42083947907,0.0,0.0,0.0,2019-03-17T21:15:56.956299,3,EyesClosed
6636.411742736309,11815.221526053134,-5627.968088146221,-6073.05837548475,35917.889883266675,-4657.768268319162,5560.734040824657,4615.881099209917,0.0,0.0,0.0,2019-03-17T21:15:56.957210,3,EyesClosed
6582.700500810207,11758.492798625564,-5631.611422492436,-6096.706521118465,36042.70202430511,-4103.042674427352,5566.098459493931,4666.999538779204,0.0,0.0,0.0,2019-03-17T21:15:56.964335,3,EyesClosed
5982.3549964851145,11154.392201231982,-6263.606996966243,-6728.56798512554,35582.07727457014,-4058.2050750500057,4978.314635552721,4104.093206416751,0.0,0.0,0.0,2019-03-17T21:15:56.964977,3,EyesClosed
5940.311365164682,11115.701331579845,-6358.959538812583,-6803.178108117356,35382.610307050985,-4622.273698124135,4876.435384325431,3961.0196901583304,-0.004,1.004,0.278,2019-03-17T21:15:56.970991,3,EyesClosed
6531.224433329634,11707.530821267464,-5746.409982014893,-6191.232048419959,35808.701611602504,-4750.349193853044,5440.280489955007,4493.594705294932,0.0,0.0,0.0,2019-03-17T21:15:56.971668,3,EyesClosed
6627.851024609927,11797.787165377995,-5596.697997653246,-6060.988433478884,36042.90319000521,-4218.26591709446,5591.847669106444,4684.366844220977,0.0,0.0,0.0,2019-03-17T21:15:56.979029,3,EyesClosed
6054.551131075756,11221.827414253643,-6181.6431500486315,-6652.035612110569,35651.546496337236,-4015.826167562743,5054.757601589871,4184.335969011303,0.0,0.0,0.0,2019-03-17T21:15:56.979936,3,EyesClosed
5863.577826449612,11032.306973017094,-6433.457903082121,-6884.359643979031,35342.31011179806,-4534.0290110145825,4808.776653859217,3908.738959877367,0.0,0.0,0.0,2019-03-17T21:15:56.987048,3,EyesClosed
6438.665859540208,11614.368750377746,-5851.887864099487,-6291.39021532419,35713.79610464527,-4776.4560313768425,5340.748171895525,4407.406378675268,0.0,0.0,0.0,2019-03-17T21:15:56.987715,3,EyesClosed
6688.647769528362,11865.669413288762,-5544.394915627828,-5998.224735048382,36052.3579779098,-4294.351255220325,5641.3791348194045,4733.160702366913,0.0,0.0,0.0,2019-03-17T21:15:56.994415,3,EyesClosed
6172.07660342176,11342.370372101113,-6062.5977590796665,-6522.7978256699835,35744.663863738046,-3962.6066640146573,5176.395794915652,4311.271525772992,0.0,0.0,0.0,2019-03-17T21:15:56.995215,3,EyesClosed
5853.1619135334395,11019.074740299553,-6440.051667696437,-6887.108908547033,35361.823184707544,-4399.806785560463,4812.151767271968,3929.257861287339,0.0,0.0,0.0,2019-03-17T21:15:57.000686,3,EyesClosed
6342.77687582694,11516.870441063696,-5957.566911884179,-6394.431757263155,35630.982891438354,-4776.187810443379,5247.586101005805,4320.100464832838,0.0,0.0,0.0,2019-03-17T21:15:57.008662,3,EyesClosed
6734.602956128473,11910.439957432744,-5507.536889021027,-5966.37349919957,36055.46487038909,-4386.909829009751,5666.88247524291,4755.423039844399,0.002,1.0,0.28200000000000003,2019-03-17T21:15:57.009453,3,EyesClosed
6283.857677442751,11456.632489756643,-5935.08105696214,-6415.352990073323,35832.79679212532,-3976.397690343582,5283.907685745679,4416.5705939019435,0.0,0.0,0.0,2019-03-17T21:15:57.016477,3,EyesClosed
5855.642957167978,11019.94645833331,-6418.683399997163,-6887.690053902871,35400.715220059785,-4300.18506052316,4828.177968046423,3953.263634832339,0.0,0.0,0.0,2019-03-17T21:15:57.017409,3,EyesClosed
6225.586679647766,11393.444108181491,-6076.969930764429,-6528.743389695095,35542.15705897297,-4784.7261768253065,5130.887643204647,4207.850004178286,0.0,0.0,0.0,2019-03-17T21:15:57.023875,3,EyesClosed
6725.528147879619,11900.828707316961,-5529.508653820593,-5992.726205912377,36013.33183209084,-4508.995057224638,5639.993326663176,4721.090760361048,0.0,0.0,0.0,2019-03-17T21:15:57.024584,3,EyesClosed
6413.430740050166,11590.072404154827,-5807.072616466596,-6288.328026333813,35923.567226358326,-3998.324751654238,5398.25921037903,4527.412894655811,0.0,0.0,0.0,2019-03-17T21:15:57.031403,3,EyesClosed
5875.848934155576,11049.160188336396,-6393.045949106926,-6866.210027481321,35444.52463919218,-4210.1298821127275,4856.788200949216,3986.478327092925,0.0,0.0,0.0,2019-03-17T21:15:57.032046,3,EyesClosed
6110.989285825406,11279.785487626254,-6194.98714148845,-6651.432115010276,35464.26122954622,-4755.3783363554885,5031.131807700612,4109.658790786122,0.0,0.0,0.0,2019-03-17T21:15:57.039342,3,EyesClosed
6672.800382709549,11849.442046814209,-5578.503677666626,-6045.856302482642,35946.88009582521,-4609.57790727352,5599.715483154712,4667.178352734846,0.0,0.0,0.0,2019-03-17T21:15:57.040234,3,EyesClosed
6486.252723485556,11655.16068400868,-5727.522757950158,-6217.160071988114,35949.07056678183,-4077.449927026025,5466.990824579099,4583.582828471998,0.0,0.0,0.0,2019-03-17T21:15:57.046431,3,EyesClosed
5918.652524787489,11076.876351460976,-6346.308451450879,-6832.168320675889,35472.35256103904,-4142.337041179781,4891.29929438821,4023.381057188637,0.0,1.0,0.28,2019-03-17T21:15:57.047102,3,EyesClosed
6005.757272929821,11173.368832274537,-6301.806128240362,-6767.594130944506,35375.122472658455,-4706.226850298268,4930.995992540836,4006.9525250139864,0.0,0.0,0.0,2019-03-17T21:15:57.054069,3,EyesClosed
6603.308809198,11779.95047330266,-5660.0428414395865,-6127.864852889163,35847.57129521028,-4705.288077031145,5521.886708961333,4574.709185923241,0.0,0.0,0.0,2019-03-17T21:15:57.054738,3,EyesClosed
6591.909419525793,11766.092391740369,-5620.770826431612,-6110.3187334917475,36006.827474454345,-4137.576119610801,5571.52993339657,4667.267759712668,0.0,0.0,0.0,2019-03-17T21:15:57.061093,3,EyesClosed
6004.147947329038,11165.992756604286,-6246.574967691299,-6734.178272983822,35560.306675470674,-4055.813438393288,4996.03956890578,4123.092189203762,0.0,0.0,0.0,2019-03-17T21:15:57.061769,3,EyesClosed
5948.357993168592,11106.224191930794,-6368.034347061437,-6829.73198053026,35348.970931645745,-4603.140604870392,4878.53644830423,3968.5298762953134,0.0,0.0,0.0,2019-03-17T21:15:57.068951,3,EyesClosed
6535.024229887036,11704.98272239956,-5752.3778977844595,-6206.006551504916,35771.35184661768,-4744.850664717039,5440.705173099658,4503.071844943982,0.0,0.0,0.0,2019-03-17T21:15:57.075671,3,EyesClosed
6647.833484152971,11825.033941869015,-5573.474535164182,-6045.923357716008,36022.13841940623,-4221.685733996122,5615.4287595067935,4714.564050980098,0.0,0.0,0.0,2019-03-17T21:15:57.076039,3,EyesClosed
6085.8435733131855,11259.199530982916,-6151.133018867138,-6631.248489767134,35639.789478753744,-3996.7377777979113,5086.787651394326,4223.876204952741,0.0,0.0,0.0,2019-03-17T21:15:57.083122,3,EyesClosed
5869.59044570809,11040.577118465557,-6431.289783869956,-6896.898972618458,35315.622128918425,-4506.916344990295,4815.102197540069,3923.938146106976,0.0,0.0,0.0,2019-03-17T21:15:57.083423,3,EyesClosed
6407.328713813868,11584.596226763277,-5887.270675572237,-6345.123808994747,35648.61841781359,-4802.3393514560885,5308.740473835525,4378.43851786119,-0.008,1.0,0.28600000000000003,2019-03-17T21:15:57.091476,3,EyesClosed
6674.409708310332,11852.593642782407,-5561.471648391682,-6038.524930301301,35994.8469394263,-4349.604767513843,5619.764997931123,4713.871146901983,0.0,0.0,0.0,2019-03-17T21:15:57.092137,3,EyesClosed
6175.451716834512,11348.67356403751,-6059.3120526447365,-6542.57911951293,35707.98465108689,-3993.4744231074365,5173.35595766973,4313.28318277397,0.0,0.0,0.0,2019-03-17T21:15:57.099283,3,EyesClosed
5837.180416247895,11012.011589051675,-6451.8310370243835,-6917.350818795064,35325.74746915668,-4395.224677947125,4800.99824678877,3924.8545676296435,0.0,0.0,0.0,2019-03-17T21:15:57.099637,3,EyesClosed
6305.114186419748,11483.901617992118,-5990.960418100407,-6443.762057276018,35576.95872508988,-4793.4210054184205,5219.646420436671,4294.731234876065,0.0,0.0,0.0,2019-03-17T21:15:57.105929,3,EyesClosed
6724.991706012691,11905.857849819406,-5515.8517379584,-5985.171316286483,36019.053878671395,-4410.982657788117,5670.570513078036,4754.79719099965,0.0,0.0,0.0,2019-03-17T21:15:57.106402,3,EyesClosed
6302.990770696494,11483.879266247663,-5920.530071321735,-6406.03231263546,35817.016460539875,-3972.2849693638054,5309.388674424729,4439.369373246357,0.0,0.0,0.0,2019-03-17T21:15:57.113934,3,EyesClosed
5837.023954036707,11012.771548363156,-6441.325717130389,-6911.919344892424,35359.14097537291,-4290.0150167959955,4821.114816798547,3941.7077829489454,0.0,0.0,0.0,2019-03-17T21:15:57.114401,3,EyesClosed
6184.548876827822,11361.414058377035,-6124.847367387697,-6573.424526861254,35483.14845361096,-4788.727139082806,5103.059721357789,4173.473021206024,0.0,0.0,0.0,2019-03-17T21:15:57.121961,3,EyesClosed
6688.379548594899,11869.53626507953,-5574.346253197939,-6033.205215120937,35948.04238653689,-4544.020240786104,5614.333524028483,4683.852754098506,0.0,0.0,0.0,2019-03-17T21:15:57.122306,3,EyesClosed
6420.113911642303,11599.080157170316,-5810.939468257364,-6289.825593212318,35888.38558058567,-4011.6240396051458,5402.416634847717,4521.735551564164,-0.002,0.998,0.29,2019-03-17T21:15:57.129057,3,EyesClosed
5878.777012679221,11056.022173884176,-6398.4103677762,-6867.953463548835,35412.33812717654,-4185.520611467435,4855.670613726451,3980.97979795692,0.0,0.0,0.0,2019-03-17T21:15:57.136127,3,EyesClosed
6100.595724653688,11281.461868460401,-6215.886022554162,-6660.953958148237,35425.48095291626,-4718.565013237598,5012.982191202902,4092.582058022268,0.0,0.0,0.0,2019-03-17T21:15:57.136707,3,EyesClosed
6667.592426251463,11852.817160226961,-5607.359779758427,-6056.428677610002,35901.79662725885,-4610.069645651537,5573.832163075467,4645.877140268939,0.0,0.0,0.0,2019-03-17T21:15:57.144204,3,EyesClosed
6516.181709311213,11703.239286332046,-5710.55778390858,-6180.123231425671,35951.14927901617,-4052.483028469447,5491.331874290929,4611.947192185783,0.0,0.0,0.0,2019-03-17T21:15:57.144778,3,EyesClosed
5933.494083105813,11116.640104846967,-6325.946012252094,-6795.399701046908,35485.51773852322,-4080.959150905508,4918.92605053497,4063.4577349970027,0.0,0.0,0.0,2019-03-17T21:15:57.153099,3,EyesClosed
5999.431729248969,11180.364928289047,-6310.635067300209,-6761.268587263655,35367.81345222157,-4646.525340858143,4923.731675592861,4020.5423856428133,0.0,0.0,0.0,2019-03-17T21:15:57.153833,3,EyesClosed
6585.583875844941,11770.786258075985,-5691.894077288399,-6144.472199019457,35819.43044894105,-4693.531059447653,5498.70794996118,4565.679081163297,0.0,0.0,0.0,2019-03-17T21:15:57.159232,3,EyesClosed
6592.40115790381,11775.547179644964,-5630.538538758581,-6107.122434034638,35991.98591613602,-4141.778247568399,5568.311282195006,4673.63800688243,0.0,0.0,0.0,2019-03-17T21:15:57.159708,3,EyesClosed
6000.750482171832,11176.274559053727,-6247.536092702877,-6728.679743847817,35558.138556258506,-4034.4675224384696,5004.8461562211705,4135.542110865368,0.0,0.0,0.0,2019-03-17T21:15:57.166438,3,EyesClosed
5918.518414320757,11092.991959213252,-6387.256847293002,-6844.908815015414,35335.80575416157,-4567.3778137419,4867.315872587666,3962.2713878478276,0.0,1.0,0.294,2019-03-17T21:15:57.166909,3,EyesClosed
6505.609334183852,11682.318053521878,-5780.831668476066,-6234.013287307416,35746.31789282774,-4745.252996117234,5423.002591491055,4482.575295278465,0.0,0.0,0.0,2019-03-17T21:15:57.174349,3,EyesClosed
6667.279501829088,11848.123293891347,-5556.934244267255,-6029.070142396706,36032.86725674477,-4224.569109030856,5637.624041750913,4732.3113360776115,0.0,0.0,0.0,2019-03-17T21:15:57.174802,3,EyesClosed
6101.8697740876405,11277.729127136367,-6129.407123256579,-6608.561469144996,35664.08582497666,-3982.1867921575063,5113.877965674158,4245.6021005633,0.0,0.0,0.0,2019-03-17T21:15:57.181464,3,EyesClosed
5855.642957167978,11025.288525258127,-6442.935042731171,-6905.616152956028,35315.10803879595,-4486.620961024876,4812.129415527513,3914.0139715688197,0.0,0.0,0.0,2019-03-17T21:15:57.181903,3,EyesClosed
6404.199469590124,11582.763383717942,-5894.803213453676,-6344.095628749804,35651.546496337236,-4789.576505372108,5319.29049721843,4372.3141398804355,0.0,0.0,0.0,2019-03-17T21:15:57.188189,3,EyesClosed
6711.178327939311,11897.677111348763,-5519.740941493624,-5987.048862820729,36033.49310558952,-4329.778770181986,5674.638530568902,4749.879807219482,0.0,0.0,0.0,2019-03-17T21:15:57.195827,3,EyesClosed
6191.232048419959,11375.227436450416,-6027.19259586246,-6509.073854574425,35735.09731711118,-3978.610513044657,5210.370446487719,4335.590223740366,0.0,0.0,0.0,2019-03-17T21:15:57.196303,3,EyesClosed
5810.805357790632,10988.117574228952,-6466.85140929835,-6939.903728950469,35313.02932656161,-4388.96618949964,4792.191659473379,3900.2452969843507,0.0,0.0,0.0,2019-03-17T21:15:57.203869,3,EyesClosed
6259.114296330727,11442.439132027523,-6029.651287752544,-6490.208982254146,35537.373785659525,-4804.99920904627,5187.705777610037,4247.211426164082,0.0,0.0,0.0,2019-03-17T21:15:57.204631,3,EyesClosed
6708.294952904577,11893.318521179977,-5521.305563605495,-6002.672732194988,35995.293974315406,-4435.323707499946,5664.222617652728,4733.585385511564,-0.004,0.998,0.294,2019-03-17T21:15:57.211103,3,EyesClosed
6321.945049994594,11501.045405989338,-5883.716748203844,-6383.792326902429,35829.600492668214,-3967.300530350272,5337.685982905148,4458.144838588815,0.0,0.0,0.0,2019-03-17T21:15:57.211686,3,EyesClosed
5845.025878551707,11017.46541469877,-6416.045894151437,-6903.380978510497,35366.181774876335,-4257.135600702239,4840.471427496842,3954.7835534552996,0.0,0.0,0.0,2019-03-17T21:15:57.218715,3,EyesClosed
6181.106708181705,11361.01172697684,-6108.7317596354205,-6574.58681757293,35476.80055818565,-4756.920606722904,5115.86727093068,4178.122184052728,0.0,0.0,0.0,2019-03-17T21:15:57.219475,3,EyesClosed
6691.79936549656,11875.660643060284,-5543.456142360705,-6016.955496901929,35947.12596501422,-4537.068848260504,5642.697887742268,4701.488280473743,0.0,0.0,0.0,2019-03-17T21:15:57.226579,3,EyesClosed
6421.343257587345,11605.316293873346,-5776.853057963021,-6267.473848757011,35895.15815915563,-4010.4393971490144,5439.207606221153,4548.356479210434,0.0,0.0,0.0,2019-03-17T21:15:57.227090,3,EyesClosed
5876.854762656065,11055.865711672988,-6373.443469219622,-6858.49867564424,35420.09418250253,-4157.849151831764,4881.956265205892,4004.1138534681627,0.0,0.0,0.0,2019-03-17T21:15:57.234822,3,EyesClosed
6070.398517894569,11252.94104253543,-6220.7363511009635,-6685.473821815708,35409.87943528646,-4699.543678706131,5010.903478968558,4090.19042136555,0.0,0.0,0.0,2019-03-17T21:15:57.235556,3,EyesClosed
6643.430190495275,11833.505253017576,-5601.078939566486,-6070.48792487239,35890.8219207313,-4617.2669073661455,5583.354006213428,4649.140494959413,0.0,0.0,0.0,2019-03-17T21:15:57.241193,3,EyesClosed
6524.138930337302,11703.954542154615,-5675.577303836025,-6164.9687486849725,35962.92864834412,-4063.323624530271,5523.808958984489,4638.3446023875,0.0,0.0,0.0,2019-03-17T21:15:57.241669,3,EyesClosed
5938.5679290971675,11110.33691291057,-6300.889706717695,-6787.576590487551,35498.66056426294,-4068.285711799349,4947.580986926673,4081.6520549836227,-0.006,1.002,0.28800000000000003,2019-03-17T21:15:57.248204,3,EyesClosed
5972.475525435869,11148.357230229049,-6315.977134225027,-6783.128593340945,35356.5481730161,-4631.192044161802,4918.300201690221,4010.4393971490144,0.0,0.0,0.0,2019-03-17T21:15:57.256055,3,EyesClosed
6549.374049827344,11735.157577414224,-5709.596658897002,-6173.708280766998,35782.86299501217,-4713.893498646438,5469.516571702549,4543.5955576414535,0.0,0.0,0.0,2019-03-17T21:15:57.256576,3,EyesClosed
6571.301111138,11756.883473024784,-5636.819378950522,-6118.700637662487,35958.45829945306,-4175.708195651555,5551.927453509266,4667.02189052366,0.0,0.0,0.0,2019-03-17T21:15:57.264014,3,EyesClosed
6010.0041043763285,11185.662291724955,-6219.7305226004755,-6707.1103104484455,35560.41843419295,-4012.1157779831624,5019.844176750681,4165.426393202114,0.0,0.0,0.0,2019-03-17T21:15:57.264610,3,EyesClosed
5882.666216214445,11059.509046019202,-6404.043007378938,-6878.1011555315445,35298.27717522111,-4557.900674092851,4836.448113494887,3946.7816289403,0.0,0.0,0.0,2019-03-17T21:15:57.270898,3,EyesClosed
6481.737671105585,11665.576596924853,-5793.706273282322,-6265.618653967221,35707.09058130867,-4749.008089185726,5400.382626102284,4471.555885261999,0.0,0.0,0.0,2019-03-17T21:15:57.271504,3,EyesClosed
6667.726536718194,11855.991107939615,-5543.277328405062,-6038.904909957041,36006.067515142866,-4238.024859192951,5644.217806365229,4745.6329757729745,0.0,0.0,0.0,2019-03-17T21:15:57.278832,3,EyesClosed
6123.64037318711,11302.964246626407,-6092.660855372054,-6597.3408934284325,35657.268542917795,-3960.773820969322,5142.644660788138,4286.215220238593,0.0,0.0,0.0,2019-03-17T21:15:57.279474,3,EyesClosed
5853.3407274890815,11026.875499114454,-6424.785426233462,-6909.035969857689,35301.585233400496,-4438.028268579039,4827.9320988574145,3943.3394602941826,0.0,0.0,0.0,2019-03-17T21:15:57.286911,3,EyesClosed
6363.005204558994,11544.966583844016,-5915.210356141371,-6383.8593821357945,35596.158873576984,-4779.764089556228,5292.781328294436,4362.948758953662,-0.004,1.006,0.28400000000000003,2019-03-17T21:15:57.287733,3,EyesClosed
6700.47184234522,11882.902608263805,-5518.824519970956,-6000.459909493913,35986.8450149113,-4339.211206342126,5669.36351887745,4761.010975958226,0.0,0.0,0.0,2019-03-17T21:15:57.294010,3,EyesClosed
6205.492461382444,11383.788154576798,-6004.99731361834,-6495.685159645696,35705.95064234146,-3965.3112250937493,5226.977792618012,4369.520171823522,0.0,0.0,0.0,2019-03-17T21:15:57.294490,3,EyesClosed
5806.849099022043,10981.546161359092,-6466.0914499868695,-6937.825016716125,35276.28305867709,-4353.918654193718,4793.868040307527,3923.357000751138,0.0,0.0,0.0,2019-03-17T21:15:57.301684,3,EyesClosed
6233.968583818506,11413.784195635819,-6051.533645574289,-6507.866860373839,35487.73056122429,-4792.258714706745,5167.745669811448,4248.016088964473,0.0,0.0,0.0,2019-03-17T21:15:57.302324,3,EyesClosed
6699.220144655722,11879.706308806695,-5529.799226498512,-6002.471566494891,35951.64101739419,-4447.259539039081,5657.695908271779,4744.738905994762,0.0,0.0,0.0,2019-03-17T21:15:57.308395,3,EyesClosed
6328.762332053463,11502.85589729022,-5871.825620153621,-6361.373527213756,35802.71134408848,-3964.327748337716,5351.544064467438,4487.31386510299,0.0,0.0,0.0,2019-03-17T21:15:57.308917,3,EyesClosed
5817.667343338411,10991.626798108435,-6435.782484505473,-6910.377074525008,35322.14883829938,-4237.26489988147,4825.093427311591,3960.6397105025903,0.0,0.0,0.0,2019-03-17T21:15:57.317370,3,EyesClosed
6125.674381932543,11307.836926917664,-6160.386641071635,-6610.327256956966,35411.265243442685,-4749.075144419092,5073.24249425441,4159.704346621555,0.0,0.0,0.0,2019-03-17T21:15:57.323098,3,EyesClosed
6677.918932189815,11863.545997565509,-5562.186904214252,-6015.390874790058,35904.121208682205,-4534.520749392599,5634.628907993902,4714.049960857626,0.0,0.0,0.0,2019-03-17T21:15:57.323701,3,EyesClosed
6447.360688133323,11628.316238917856,-5757.965833898286,-6227.553633159832,35876.18152811307,-3994.4578998634697,5464.5768361779255,4594.468128021733,-0.008,1.008,0.28600000000000003,2019-03-17T21:15:57.331263,3,EyesClosed
5897.194850110394,11071.020194413686,-6356.098515522303,-6821.573593804073,35401.67634507136,-4115.33613387777,4906.409073639998,4047.5432929448243,0.0,0.0,0.0,2019-03-17T21:15:57.331929,3,EyesClosed
6032.266441853815,11216.753568262287,-6262.020023109916,-6705.679798803306,35342.75714668717,-4691.273533257668,4984.640179233573,4074.834772924754,0.0,0.0,0.0,2019-03-17T21:15:57.339067,3,EyesClosed
6630.443826966743,11822.195270323191,-5622.558965988036,-6069.124468460616,35833.020309569874,-4623.145416157891,5578.727195111179,4650.503951371187,0.0,0.0,0.0,2019-03-17T21:15:57.339752,3,EyesClosed
6536.499445021087,11715.80096671593,-5673.498591601681,-6140.672402462054,35920.03565073438,-4075.125345602673,5541.310374892995,4658.416468908366,0.0,0.0,0.0,2019-03-17T21:15:57.346231,3,EyesClosed
5954.012984515784,11124.53027063969,-6288.8197647118295,-6755.568892427551,35469.4691860043,-4048.549121445313,4966.132934824578,4109.8152529973095,0.0,0.0,0.0,2019-03-17T21:15:57.346997,3,EyesClosed
5960.897321808019,11135.840253334076,-6333.478550133533,-6777.540657227119,35310.79415211608,-4609.600259017976,4915.461530144397,4013.9933245174084,0.0,0.0,0.0,2019-03-17T21:15:57.353827,3,EyesClosed
6549.016421916059,11734.241155891557,-5715.184595010829,-6154.083449135238,35750.45296555197,-4703.008199096704,5491.845964413401,4557.207770014736,0.0,0.0,0.0,2019-03-17T21:15:57.354593,3,EyesClosed
6594.323407926966,11777.938816301683,-5616.814567663022,-6075.293549930281,35943.37087194573,-4177.406928230158,5590.8194888615,4695.341550748533,0.0,0.0,0.0,2019-03-17T21:15:57.361704,3,EyesClosed
6008.350075286637,11183.82944867962,-6219.641115622654,-6681.294045602566,35533.79750654668,-4010.5288041268354,5035.512749613852,4175.059995062351,0.0,0.0,0.0,2019-03-17T21:15:57.362179,3,EyesClosed
5851.954919332853,11034.855071884998,-6427.8252634793835,-6867.260559470721,35267.36471263942,-4533.716086592208,4839.085619340613,3941.6854312044898,-0.01,1.0,0.28400000000000003,2019-03-17T21:15:57.369922,3,EyesClosed
6432.116798414802,11625.566974349855,-5838.968555804319,-6269.329043546802,35654.51927834979,-4756.920606722904,5384.06585264991,4446.700745427697,0.0,0.0,0.0,2019-03-17T21:15:57.370836,3,EyesClosed
6660.663385470318,11845.284622345522,-5556.57661635597,-6004.99731361834,35980.385360763714,-4257.8508565248085,5657.964129205243,4751.08680142007,0.0,0.0,0.0,2019-03-17T21:15:57.377173,3,EyesClosed
6114.073826560239,11295.319950022693,-6102.5403264213,-6559.655852276785,35639.588313053646,-3961.9137599365426,5155.720431294493,4296.877002343775,0.0,0.0,0.0,2019-03-17T21:15:57.383513,3,EyesClosed
5823.143520729962,11005.261362226172,-6452.926272502694,-6893.4791557167955,35273.042055731064,-4419.0963410253935,4818.566717930641,3939.7855329257886,0.0,0.0,0.0,2019-03-17T21:15:57.384161,3,EyesClosed
6329.25407043148,11517.13866199716,-5951.017850758773,-6377.198562288113,35563.9947133058,-4773.885580764482,5279.6161508102605,4354.857427460841,0.0,0.0,0.0,2019-03-17T21:15:57.391964,3,EyesClosed
6673.694452487762,11861.646099286807,-5544.774895283567,-5986.154793042516,35956.44664245208,-4369.0284334455055,5663.015623452142,4756.741792767262,0.0,0.0,0.0,2019-03-17T21:15:57.392591,3,EyesClosed
6219.015266777906,11400.753128618375,-5989.306389010714,-6440.342240374356,35719.495799481374,-3954.962367410942,5264.685185514115,4407.786358331008,0.0,0.0,0.0,2019-03-17T21:15:57.399312,3,EyesClosed
5793.438052348859,10972.001966476675,-6472.864028556827,-6908.007789612746,35278.40647440034,-4318.535842720967,4811.458863193853,3943.9876608833865,0.0,0.0,0.0,2019-03-17T21:15:57.399781,3,EyesClosed
6186.225257661969,11373.86398003864,-6099.8134135977525,-6518.595697712386,35447.98915958276,-4790.5376303836865,5148.232596901965,4230.3805625892355,0.0,0.0,0.0,2019-03-17T21:15:57.405890,3,EyesClosed
6673.023900154102,11867.524608078553,-5558.923549523777,-5987.384138987558,35922.851970535754,-4474.014577152083,5656.377155348916,4741.922586193394,-0.006,0.998,0.28,2019-03-17T21:15:57.406347,3,EyesClosed
6334.260861189468,11525.297048723347,-5876.5194864892355,-6316.223003414036,35799.15741672008,-3976.9564839549644,5377.628550246782,4513.286592160058,0.0,0.0,0.0,2019-03-17T21:15:57.414203,3,EyesClosed
5831.480721411792,11014.291466986117,-6438.554100817932,-6868.780478093681,35329.390803502894,-4212.812091447365,4851.066154368657,3990.9933794728972,0.0,0.0,0.0,2019-03-17T21:15:57.414896,3,EyesClosed
6103.367340966147,11288.301502263726,-6201.357388658213,-6611.646009879829,35382.76676926217,-4748.717516507807,5059.071488269745,4149.243730216472,0.0,0.0,0.0,2019-03-17T21:15:57.422306,3,EyesClosed
6665.871341928404,11850.984317181626,-5592.406462717827,-6011.836947421664,35875.35451356823,-4568.450697475755,5619.519128742115,4702.583515952053,0.0,0.0,0.0,2019-03-17T21:15:57.423127,3,EyesClosed
6442.823284008895,11622.817709781852,-5776.271912607183,-6218.568231888799,35858.07661510428,-4041.910653342087,5460.12883903132,4588.522563996621,0.0,0.0,0.0,2019-03-17T21:15:57.428914,3,EyesClosed
5866.394146250981,11043.706362689301,-6391.861306650795,-6830.380181119464,35378.251716882194,-4145.443933659069,4889.131175176046,4029.2372142359277,0.0,0.0,0.0,2019-03-17T21:15:57.429720,3,EyesClosed
6016.486110268368,11203.744852989299,-6282.449517542067,-6700.47184234522,35339.270274552146,-4682.332835475545,4982.31559781022,4074.3430345467373,0.0,0.0,0.0,2019-03-17T21:15:57.435981,3,EyesClosed
6598.97257077367,11792.489801942087,-5657.941777460787,-6081.373224422125,35809.70744010299,-4662.998576521704,5557.224816945174,4628.643945293898,0.0,0.0,0.0,2019-03-17T21:15:57.443882,3,EyesClosed
6533.191386841701,11719.60076327333,-5675.465545113748,-6122.455730730979,35919.11922921172,-4115.984334466974,5549.357002896906,4665.613730622975,0.0,0.0,0.0,2019-03-17T21:15:57.444658,3,EyesClosed
5930.945984237907,11100.926828494887,-6313.853718501773,-6761.805029130582,35450.7160724063,-4075.438270025047,4955.8958358640475,4101.0086656819185,0.004,1.004,0.28400000000000003,2019-03-17T21:15:57.451781,3,EyesClosed
5898.938286177908,11071.7130984918,-6393.425928762666,-6820.344247859031,35263.74373003766,-4628.912166227361,4876.457736069887,3978.007015944364,0.0,0.0,0.0,2019-03-17T21:15:57.452744,3,EyesClosed
6498.590886424886,11684.843800645329,-5765.85599969101,-6183.721862282975,35702.48612195088,-4741.743772237751,5451.612824393848,4526.429417899778,0.0,0.0,0.0,2019-03-17T21:15:57.458545,3,EyesClosed
6593.5858003599415,11780.799839591962,-5620.614364220424,-6054.797000264764,35929.51279038344,-4207.1347483557165,5594.507526696626,4710.272516044679,0.0,0.0,0.0,2019-03-17T21:15:57.459497,3,EyesClosed
5992.882668123564,11171.580692718113,-6242.641060667165,-6678.187153123278,35502.50506430925,-4038.0214498068635,5023.465159352441,4176.82578287432,0.0,0.0,0.0,2019-03-17T21:15:57.466544,3,EyesClosed
5825.669267853412,11005.239010481717,-6469.108935488336,-6881.565675922117,35216.849770170425,-4542.075639018493,4806.541479413686,3927.223852541906,0.0,0.0,0.0,2019-03-17T21:15:57.467203,3,EyesClosed
6401.159632344203,11590.541790788388,-5877.413556267447,-6280.773136707919,35599.42222826746,-4776.433679632388,5352.080506334366,4432.395628976301,0.0,0.0,0.0,2019-03-17T21:15:57.474628,3,EyesClosed
6645.464199240709,11835.494558274098,-5571.664043863302,-5994.268476279793,35934.36311893024,-4295.580601165367,5643.301384842562,4748.8069234856275,0.0,0.0,0.0,2019-03-17T21:15:57.475329,3,EyesClosed
6140.940623395518,11319.057502634229,-6083.250770956371,-6518.372180267833,35626.26667335829,-3968.3063588507607,5174.294730936853,4324.056723601428,0.0,0.0,0.0,2019-03-17T21:15:57.481705,3,EyesClosed
5814.649857836946,10990.352748674482,-6471.075889000403,-6888.472364958807,35242.19664838274,-4413.1060735113715,4810.631848649007,3936.745695679867,0.0,0.0,0.0,2019-03-17T21:15:57.482342,3,EyesClosed
6289.982055423505,11476.83846674424,-5994.223772790882,-6401.249039322024,35506.84130273358,-4798.271333965223,5244.501560270973,4323.2967642899475,-0.002,1.002,0.28200000000000003,2019-03-17T21:15:57.489919,3,EyesClosed
6669.2241035967,11858.382744596332,-5559.348232668428,-5984.031377319262,35920.23681643448,-4402.332532683913,5654.4102018368485,4750.2150833863125,0.0,0.0,0.0,2019-03-17T21:15:57.490636,3,EyesClosed
6225.56432790331,11407.279837999326,-5996.7942234032425,-6432.966164704105,35690.550290411746,-3986.746548026389,5259.94661568959,4406.4899571526,0.0,0.0,0.0,2019-03-17T21:15:57.496285,3,EyesClosed
5789.012406946708,10964.961166973253,-6494.165241022735,-6923.206975842354,35243.9177327058,-4334.472636517601,4787.989531515781,3926.843872886166,0.0,0.0,0.0,2019-03-17T21:15:57.504217,3,EyesClosed
6179.653844792109,11365.839703779186,-6120.309963263269,-6537.125293865835,35413.567473121584,-4800.238287477289,5124.696209990527,4211.8286146913315,0.0,0.0,0.0,2019-03-17T21:15:57.504874,3,EyesClosed
6664.46318202772,11857.44397132921,-5581.990549801654,-6011.814595677209,35874.19222285655,-4521.512034119611,5625.531748000592,4716.083969603058,0.0,0.0,0.0,2019-03-17T21:15:57.511323,3,EyesClosed
6349.527102652443,11535.735313383975,-5871.78091666471,-6317.206480170069,35772.98352396292,-4013.836862306221,5365.692718707647,4511.051417714527,0.0,0.0,0.0,2019-03-17T21:15:57.512287,3,EyesClosed
5823.568203874613,11006.6471703824,-6455.317909159411,-6890.46167021533,35287.12365473791,-4228.748885243998,4816.5997644185745,3967.680510006012,0.0,0.0,0.0,2019-03-17T21:15:57.518634,3,EyesClosed
6087.452898913968,11277.416202713992,-6229.878214583185,-6641.463236983209,35333.65998669386,-4752.807885743128,5015.597345304173,4115.716113533511,0.0,0.0,0.0,2019-03-17T21:15:57.519495,3,EyesClosed
6659.769315692105,11849.218529369657,-5604.655218679335,-6021.917584171008,35833.33323399225,-4591.808270431551,5599.983704088176,4686.892591344427,0.0,0.0,0.0,2019-03-17T21:15:57.526712,3,EyesClosed
6466.985519765082,11649.192768239114,-5749.114543093985,-6185.8676297506845,35848.3089027773,-4048.7055836565,5477.920827617744,4611.5672125300425,0.0,1.002,0.29,2019-03-17T21:15:57.527595,3,EyesClosed
5874.3513672770705,11048.444932513827,-6382.875905379761,-6819.271364125177,35355.38588230442,-4138.738410322477,4885.487840829831,4033.394638704615,0.0,0.0,0.0,2019-03-17T21:15:57.534884,3,EyesClosed
5974.978920814863,11156.895596610975,-6328.829387286829,-6743.677764377328,35267.096491705954,-4705.466890986788,4927.039733772246,4028.164330502073,0.0,0.0,0.0,2019-03-17T21:15:57.535544,3,EyesClosed
6564.282663379034,11760.19153120417,-5697.705530846779,-6113.805605626775,35734.82909617771,-4704.5504694641195,5510.062636144476,4592.344712298478,0.0,0.0,0.0,2019-03-17T21:15:57.541507,3,EyesClosed
6526.776436183029,11716.180946371669,-5690.620027854447,-6122.232213286426,35864.96095239651,-4150.718945350522,5530.067447431976,4658.125896230447,0.0,0.0,0.0,2019-03-17T21:15:57.542321,3,EyesClosed
5952.94010078193,11132.15221549895,-6304.063654430349,-6735.586432884506,35431.62768264147,-4061.133153573651,4966.088231335668,4124.925032249097,0.0,0.0,0.0,2019-03-17T21:15:57.549309,3,EyesClosed
5897.1277948770285,11073.680052003867,-6416.7835017184625,-6827.072122940079,35229.67967148777,-4610.6284392629195,4854.776543948239,3972.9331699530094,0.0,0.0,0.0,2019-03-17T21:15:57.549952,3,EyesClosed
6497.003912568559,11679.635844187242,-5793.14747967094,-6199.613952590698,35657.49206036235,-4747.644632773952,5429.864577038834,4514.515938105099,0.0,0.0,0.0,2019-03-17T21:15:57.555643,3,EyesClosed
6624.475911197175,11810.326494017423,-5605.68339892428,-6030.970040675407,35914.51476985392,-4210.1298821127275,5613.372399016906,4734.881786689972,0.0,0.0,0.0,2019-03-17T21:15:57.556188,3,EyesClosed
6019.213023091916,11200.660312254467,-6226.883080826174,-6650.918024887804,35494.90547119445,-4021.5705658877573,5048.722630586938,4206.821823933342,0.0,0.0,0.0,2019-03-17T21:15:57.563949,3,EyesClosed
5800.188279174362,10983.177838704329,-6510.213793541646,-6908.968914624324,35162.78090033304,-4544.646089630854,4775.919589509916,3903.396892952549,0.0,0.0,0.0,2019-03-17T21:15:57.571718,3,EyesClosed
6377.824411132862,11574.493238269477,-5924.687495790422,-6309.137500421703,35541.10652698357,-4798.293685709677,5315.937735550134,4405.4170734187455,-0.004,1.006,0.28600000000000003,2019-03-17T21:15:57.572371,3,EyesClosed
6670.967539664214,11866.92111097826,-5576.380261943372,-5977.884647594053,35913.68775530908,-4307.672894915688,5652.0632686690415,4765.637787060474,0.0,0.0,0.0,2019-03-17T21:15:57.578743,3,EyesClosed
6160.40899281609,11349.29941288226,-6089.173983237027,-6503.150642293768,35606.70889695989,-3963.366623326138,5183.950684541546,4345.3132325784245,0.0,0.0,0.0,2019-03-17T21:15:57.579679,3,EyesClosed
5819.187261961372,11007.027150038142,-6489.627836898308,-6888.517068447718,35213.29584280203,-4387.848602276874,4802.316999711633,3947.072201618219,0.0,0.0,0.0,2019-03-17T21:15:57.586481,3,EyesClosed
6305.270648630935,11499.145507710637,-6013.4686247669015,-6400.824356177373,35482.32143906611,-4773.5726563421085,5237.393705534185,4332.349220794346,0.0,0.0,0.0,2019-03-17T21:15:57.587376,3,EyesClosed
6705.61274356994,11904.427338174264,-5558.252997190118,-5961.120839252572,35909.61973781821,-4403.628933862321,5667.575379321025,4773.170324941912,0.0,0.0,0.0,2019-03-17T21:15:57.594204,3,EyesClosed
6283.880029187207,11482.024071457872,-5957.432801417447,-6379.83606813384,35710.890377866075,-3965.557094282758,5305.521822633961,4460.64823396781,0.0,0.0,0.0,2019-03-17T21:15:57.594956,3,EyesClosed
5823.076465496596,11012.905658829888,-6473.75809833504,-6889.79111788167,35255.294770633554,-4285.835240582853,4820.600726676074,3967.3675855836377,0.0,0.0,0.0,2019-03-17T21:15:57.602238,3,EyesClosed
6190.27092340838,11384.101078999172,-6132.044629102305,-6533.10197986388,35399.41881888137,-4769.549342340153,5127.043143158334,4219.674076995144,0.0,0.0,0.0,2019-03-17T21:15:57.602810,3,EyesClosed
6699.04133070008,11898.414718915787,-5567.8642473059,-5984.8807436085635,35874.90747867912,-4511.185528181259,5649.761038990145,4739.7097634923175,0.0,0.0,0.0,2019-03-17T21:15:57.609099,3,EyesClosed
6384.775803658463,11581.690499984086,-5849.6973931428665,-6284.550581520865,35777.83385250972,-4013.7474553284,5405.076492437898,4537.85115931644,-0.004,1.002,0.292,2019-03-17T21:15:57.609919,3,EyesClosed
5856.000585079263,11046.701496446312,-6424.114873899803,-6852.284890685665,35312.694050394784,-4187.420509746135,4872.434422067931,4007.4889668809137,0.0,0.0,0.0,2019-03-17T21:15:57.618626,3,EyesClosed
6083.161363978549,11281.99831032733,-6237.276641997891,-6641.686754427762,35331.983605859714,-4724.354115051522,5034.596328091184,4121.14758743615,0.0,0.0,0.0,2019-03-17T21:15:57.619431,3,EyesClosed
6651.566225477008,11859.522683563553,-5629.756227702645,-6034.4792645548905,35814.73658260544,-4610.606087518464,5605.72810241319,4673.950931304805,0.0,0.0,0.0,2019-03-17T21:15:57.624740,3,EyesClosed
6516.785206411506,11716.918553938694,-5721.800711369599,-6144.069867619261,35874.415740301105,-4043.3411649872264,5536.57180506847,4647.173541447347,0.0,0.0,0.0,2019-03-17T21:15:57.631200,3,EyesClosed
5921.692362033411,11117.489471136269,-6354.690355621619,-6774.165543814367,35393.33914438953,-4095.934819690564,4945.591681670151,4076.645264225634,0.0,0.0,0.0,2019-03-17T21:15:57.631912,3,EyesClosed
5974.576589414667,11177.392146276492,-6350.667041619664,-6747.410505701364,35263.967247482215,-4678.197762751313,4929.878405318071,4019.9835920314304,0.0,0.0,0.0,2019-03-17T21:15:57.638544,3,EyesClosed
6567.63542504733,11774.988386033581,-5727.99214458372,-6121.606364441677,35717.819418647225,-4715.256955058212,5500.764310451068,4569.456525976244,0.0,0.0,0.0,2019-03-17T21:15:57.639475,3,EyesClosed
6592.803489304005,11794.590865920885,-5650.655108768357,-6066.643424826077,35906.646955805656,-4138.067857988818,5584.717462625202,4695.11803330398,0.0,0.0,0.0,2019-03-17T21:15:57.646599,3,EyesClosed
5995.922505369485,11190.31145457166,-6272.771212192919,-6691.911124218836,35464.70826443533,-4036.2780137393493,5004.443824820974,4147.522645893413,0.0,0.0,0.0,2019-03-17T21:15:57.647575,3,EyesClosed
5911.164690394961,11110.269857677205,-6414.369513317289,-6804.675674995861,35238.933293692266,-4575.893828379372,4867.047651654202,3975.0118821873525,-0.004,1.004,0.28600000000000003,2019-03-17T21:15:57.654788,3,EyesClosed
6484.777508351506,11691.482268748554,-5821.2883259401715,-6204.03959799285,35639.521257820285,-4753.232568887779,5419.001629233555,4494.086443672949,0.0,0.0,0.0,2019-03-17T21:15:57.655576,3,EyesClosed
6634.355382246421,11839.227299598135,-5616.792215918567,-6017.849566680142,35908.99388897346,-4234.672097524654,5622.3578002879385,4734.166530867402,0.0,0.0,0.0,2019-03-17T21:15:57.661288,3,EyesClosed
6084.837744812697,11278.846714359132,-6181.196115159526,-6587.215553190178,35544.302826440675,-3977.8282019887215,5109.586430738739,4262.835295538342,0.0,0.0,0.0,2019-03-17T21:15:57.661926,3,EyesClosed
5860.247416525772,11057.698554718323,-6468.304272687945,-6851.726097074283,35223.59999699593,-4457.273120555058,4837.945680373393,3963.9254169375204,0.0,0.0,0.0,2019-03-17T21:15:57.669271,3,EyesClosed
6386.474536237066,11594.542753045887,-5936.042181973718,-6310.72447427803,35544.25812295176,-4774.287912164678,5320.855119330302,4406.10997749686,0.0,0.0,0.0,2019-03-17T21:15:57.670072,3,EyesClosed
6688.111327661434,11892.916189779782,-5577.944884055243,-5971.402641702014,35911.117304696716,-4324.660220701721,5660.802800751067,4769.504638851242,0.0,0.0,0.0,2019-03-17T21:15:57.677920,3,EyesClosed
6208.599353861732,11405.134070531616,-6050.885444985086,-6459.94472026166,35643.633978800055,-3946.8933876625765,5235.337345044297,4386.39573888728,0.0,0.0,0.0,2019-03-17T21:15:57.678579,3,EyesClosed
5827.971497532309,11023.187461279329,-6485.805688596451,-6883.912609089924,35224.42701154077,-4366.569741555421,4819.371380731032,3950.737887708889,0.0,0.0,0.0,2019-03-17T21:15:57.684652,3,EyesClosed
6286.472831544022,11489.55660933931,-6042.592947792166,-6428.071132668392,35457.80157539863,-4784.033272747191,5218.350019258263,4298.843955855841,0.0,0.0,0.0,2019-03-17T21:15:57.690833,3,EyesClosed
6711.021865728124,11916.877259835872,-5562.321014680983,-5963.244254975826,35898.93560396857,-4433.602623176887,5672.112783445452,4758.686394534873,-0.006,1.004,0.28,2019-03-17T21:15:57.691756,3,EyesClosed
6312.691427790097,11512.668313106098,-5934.6340220730335,-6351.248186975502,35730.604616475655,-3973.648425775579,5341.128151551265,4472.3381963179345,0.0,0.0,0.0,2019-03-17T21:15:57.701044,3,EyesClosed
5832.933584801386,11026.875499114454,-6463.90097903025,-6873.451992684841,35269.8234045295,-4269.540818874934,4843.3100990426665,3966.3394053386937,0.0,0.0,0.0,2019-03-17T21:15:57.701860,3,EyesClosed
6163.918216695573,11365.549131101267,-6158.196170115015,-6554.671413263251,35379.57046980506,-4774.310263909133,5114.325000563264,4186.97347485703,0.0,0.0,0.0,2019-03-17T21:15:57.707185,3,EyesClosed
6685.116193904423,11893.832611302449,-5578.414270688805,-5982.310292996203,35863.55279249582,-4533.671383103298,5653.314966358539,4726.946917408338,0.0,0.0,0.0,2019-03-17T21:15:57.707944,3,EyesClosed
6400.779652688462,11609.563125319853,-5819.254317194738,-6239.8694443547065,35801.481998143434,-4010.4170454045593,5444.862597568345,4565.321453252012,0.0,0.0,0.0,2019-03-17T21:15:57.714016,3,EyesClosed
5856.805247879654,11059.263176830194,-6414.257754595013,-6834.358791632509,35321.925320854825,-4170.25437000446,4886.605428052596,4013.479234394936,0.0,0.0,0.0,2019-03-17T21:15:57.714655,3,EyesClosed
6072.67839582901,11278.265569003293,-6244.987993834972,-6647.341745774955,35321.97002434373,-4703.566992708086,5031.310621656254,4113.011552454419,0.0,0.0,0.0,2019-03-17T21:15:57.721584,3,EyesClosed
6630.957917089215,11842.423599055242,-5643.301384842562,-6052.159494419038,35782.37125663415,-4634.67891629683,5588.159631271319,4653.454381639288,0.0,0.0,0.0,2019-03-17T21:15:57.722320,3,EyesClosed
6505.542278950486,11716.091539393849,-5719.766702624167,-6147.780257198841,35853.74037667995,-4077.7181479594888,5534.738962023135,4644.580739090531,0.0,0.0,0.0,2019-03-17T21:15:57.729471,3,EyesClosed
5920.507719577279,11120.976343271297,-6345.0567537613815,-6767.705889666783,35389.82992051005,-4084.6248369961786,4958.689803920961,4091.7773952218768,-0.01,1.0,0.28200000000000003,2019-03-17T21:15:57.730459,3,EyesClosed
5953.588301371134,11156.292099510682,-6369.30839649539,-6764.777811143138,35242.73309024967,-4652.292090927612,4924.044600015235,4019.2012809754947,0.0,0.0,0.0,2019-03-17T21:15:57.737636,3,EyesClosed
6542.333250323922,11751.116722955314,-5754.702479207812,-6147.31087056528,35680.559060640226,-4721.828367928072,5487.979112622633,4560.716993894219,0.0,0.0,0.0,2019-03-17T21:15:57.738321,3,EyesClosed
6573.312768138978,11786.968921061627,-5662.590940307491,-6075.315901674736,35875.51097577941,-4166.946311825074,5590.081881294475,4699.923658361871,0.0,0.0,0.0,2019-03-17T21:15:57.745008,3,EyesClosed
5993.463813479401,11203.163707633461,-6258.28728178588,-6674.99085366617,35468.172784825896,-4019.044818764308,5047.672098597539,4187.3534545127695,0.0,0.0,0.0,2019-03-17T21:15:57.750951,3,EyesClosed
5879.313454546149,11083.96185445331,-6434.262565882513,-6835.789303277648,35214.480485258166,-4562.751002639652,4867.338224332121,3972.709652508456,0.0,0.0,0.0,2019-03-17T21:15:57.751652,3,EyesClosed
6464.906807530739,11673.64557667322,-5833.6711923684115,-6229.028848293883,35615.24726334182,-4758.149952667946,5420.298030411963,4487.671493014275,0.0,0.0,0.0,2019-03-17T21:15:57.760266,3,EyesClosed
6653.264958055611,11864.77534351055,-5583.979855058176,-5994.223772790882,35922.67315658011,-4235.007373691485,5665.966053720243,4767.582388828086,0.0,0.0,0.0,2019-03-17T21:15:57.760685,3,EyesClosed
6070.912608017041,11276.65624340251,-6171.786030743841,-6593.138765470835,35538.98311126031,-3986.3218648817383,5125.7690937243815,4268.646749096722,0.0,0.0,0.0,2019-03-17T21:15:57.766911,3,EyesClosed
5821.355381173537,11027.411940981381,-6482.721147861618,-6886.281894002187,35203.39402000833,-4450.947576874206,4835.777561161228,3946.2675388178277,0.0,0.0,0.0,2019-03-17T21:15:57.767275,3,EyesClosed
6357.037288789426,11574.76145920294,-5943.172388454961,-6338.194768213602,35531.852904779065,-4770.197542929357,5334.042648558932,4396.722244825631,-0.012,0.998,0.28600000000000003,2019-03-17T21:15:57.773551,3,EyesClosed
6670.118173374913,11886.277721676555,-5568.400689172828,-5987.585304687656,35910.93849074108,-4347.123723879305,5690.552972621081,4769.8175632736165,0.0,0.0,0.0,2019-03-17T21:15:57.774025,3,EyesClosed
6192.953132743017,11399.032044295316,-6040.089552413172,-6474.652168113252,35649.62424631408,-3962.3384430811934,5262.539418046405,4388.4520993771675,0.0,0.0,0.0,2019-03-17T21:15:57.781544,3,EyesClosed
5823.702314341344,11022.069874056564,-6476.060328013937,-6893.680321416894,35242.084889660466,-4330.806950426931,4852.049631124692,3963.388975070593,0.0,0.0,0.0,2019-03-17T21:15:57.781902,3,EyesClosed
6246.887892113673,11451.044553642816,-6073.013671995839,-6470.762964578029,35439.5625519231,-4777.350101155055,5219.400551247662,4280.381414935758,0.0,0.0,0.0,2019-03-17T21:15:57.791084,3,EyesClosed
6667.503019273641,11878.92399775076,-5581.163535256807,-5992.078005323173,35874.840423445756,-4459.105963600393,5676.784298036611,4749.253958374734,0.0,0.0,0.0,2019-03-17T21:15:57.791402,3,EyesClosed
6292.261933357947,11500.441908889044,-5927.280298147238,-6353.796285843407,35718.82524714771,-3982.164440413051,5363.658709962215,4487.403272080812,0.0,0.0,0.0,2019-03-17T21:15:57.797720,3,EyesClosed
5807.296133911149,11012.346865218506,-6475.479182658099,-6889.567600437117,35250.84677348695,-4246.339708130326,4845.880549655027,3970.295664107283,0.0,0.0,0.0,2019-03-17T21:15:57.798586,3,EyesClosed
6130.770579668353,11340.693991266966,-6189.421557119079,-6577.9172274967705,35343.450050765285,-4749.589234541564,5101.62920971265,4173.473021206024,0.0,0.0,0.0,2019-03-17T21:15:57.803999,3,EyesClosed
6664.530237261086,11880.488619862632,-5602.800023889545,-5997.017740847796,35822.22441699796,-4544.646089630854,5647.592919777981,4715.949859136326,0.0,0.0,0.0,2019-03-17T21:15:57.804698,3,EyesClosed
6433.144978659747,11646.756428093486,-5799.517726840702,-6204.464281137501,35798.24099519742,-3997.296571409294,5476.535019461515,4598.312628068045,-0.01,1.002,0.28600000000000003,2019-03-17T21:15:57.811707,3,EyesClosed
5870.976253864319,11078.530380550668,-6409.273315581479,-6805.860317451992,35315.37625972942,-4119.515910090913,4905.112672461591,4040.3013277413047,0.0,0.0,0.0,2019-03-17T21:15:57.819414,3,EyesClosed
6044.984584448885,11253.164559979983,-6278.537962262388,-6657.1541615908345,35287.101302993455,-4666.463096912276,5016.379656360109,4102.506232560424,0.0,0.0,0.0,2019-03-17T21:15:57.820086,3,EyesClosed
6618.9997338056255,11830.91245066076,-5662.903864729866,-6048.203235650449,35757.382006333115,-4624.397113847389,5591.713558639713,4655.3989834069,0.0,0.0,0.0,2019-03-17T21:15:57.825962,3,EyesClosed
6522.931936136715,11736.096350681348,-5704.768682094656,-6114.006771326873,35854.94737088053,-4065.648205953623,5567.461915905705,4674.5544284050975,0.0,0.0,0.0,2019-03-17T21:15:57.826680,3,EyesClosed
5916.417350341958,11120.574011871102,-6347.694259607108,-6759.256930262677,35381.78329250614,-4061.4684297404806,4974.961873884425,4102.170956393595,0.0,0.0,0.0,2019-03-17T21:15:57.834290,3,EyesClosed
5932.51060634978,11136.734323112289,-6382.942960613127,-6775.350186270498,35228.33856682045,-4620.15028240088,4929.185501239956,4015.513243140369,0.0,0.0,0.0,2019-03-17T21:15:57.834932,3,EyesClosed
6521.188500069202,11731.961277957116,-5766.683014235856,-6152.809399701286,35667.93032502298,-4717.156853336913,5503.133595363331,4561.186380527781,0.0,0.0,0.0,2019-03-17T21:15:57.842179,3,EyesClosed
6589.718948569173,11801.139927046292,-5639.1439603738745,-6047.644442039066,35887.80443522983,-4159.793753599376,5634.830073694,4729.874995931983,0.0,0.0,0.0,2019-03-17T21:15:57.842819,3,EyesClosed
6019.704761469932,11223.213222409871,-6233.543900673855,-6646.693545185751,35488.15524436894,-3983.282027635816,5092.688511930527,4219.8752426952415,0.0,0.0,0.0,2019-03-17T21:15:57.849462,3,EyesClosed
5861.744983404277,11062.392421053937,-6457.798952793951,-6851.413172651908,35200.66710718478,-4528.172853967292,4875.138983147023,3966.7640884833445,-0.01,1.004,0.28600000000000003,2019-03-17T21:15:57.850346,3,EyesClosed
6428.249946624034,11644.454198414589,-5869.25516954126,-6257.750839918953,35582.45725422588,-4759.401650357443,5411.267925652019,4466.660853226287,0.0,0.0,0.0,2019-03-17T21:15:57.857541,3,EyesClosed
6632.053152567524,11854.605299783385,-5600.922477355299,-6010.80876717672,35893.370019599206,-4268.423231652168,5669.587036322002,4754.640728788463,0.0,0.0,0.0,2019-03-17T21:15:57.858196,3,EyesClosed
6111.011637569862,11325.04777014825,-6131.3964285131015,-6549.754029483084,35568.53211743023,-3955.9234924225207,5186.342321198264,4316.390075253257,0.0,0.0,0.0,2019-03-17T21:15:57.865621,3,EyesClosed
5823.255279452238,11033.402208495405,-6478.273150715012,-6882.817373611614,35206.45620899871,-4409.976829287628,4851.289671813211,3960.7961727137777,0.0,0.0,0.0,2019-03-17T21:15:57.866486,3,EyesClosed
6327.041247730404,11543.580775687788,-5980.030415061762,-6370.917722096172,35497.00653517324,-4771.225723174301,5305.09713948931,4369.855447990352,0.0,0.0,0.0,2019-03-17T21:15:57.871908,3,EyesClosed
6678.187153123278,11895.799564814517,-5569.808849073512,-5977.951702827419,35895.29226962236,-4358.277244362503,5688.474260386737,4773.4608976198315,0.0,0.0,0.0,2019-03-17T21:15:57.878230,3,EyesClosed
6227.575984904288,11435.912422646574,-6011.456967765924,-6429.233423380068,35658.944923751944,-3940.2102160704394,5288.154517192187,4427.0759137959385,0.0,0.0,0.0,2019-03-17T21:15:57.878869,3,EyesClosed
5816.683866582378,11019.94645833331,-6483.190534495179,-6887.712405647327,35228.316215075996,-4300.18506052316,4841.857235653071,3971.525010052325,0.0,0.0,0.0,2019-03-17T21:15:57.886293,3,EyesClosed
6207.660580594609,11423.730721918431,-6108.150614279582,-6498.1438515357795,35396.155464190895,-4774.913761009427,5175.389966415163,4252.709955300088,0.0,0.0,0.0,2019-03-17T21:15:57.887041,3,EyesClosed
6679.438850812776,11898.63823636034,-5577.140221254853,-5985.28307500876,35854.23211505796,-4470.371242805868,5664.535542075103,4746.884673462471,-0.008,1.0,0.29,2019-03-17T21:15:57.894396,3,EyesClosed
6334.685544334119,11548.721676912508,-5892.568039008145,-6320.268669160446,35726.335433284694,-3972.910818208554,5383.507059038528,4513.800682282529,0.0,0.0,0.0,2019-03-17T21:15:57.895037,3,EyesClosed
5831.704238856344,11039.66069694289,-6448.634737567275,-6867.372318192997,35257.328779378986,-4203.111434353761,4864.007814408281,3992.379187629126,0.0,0.0,0.0,2019-03-17T21:15:57.901563,3,EyesClosed
6108.150614279582,11321.851470691141,-6204.553688115321,-6604.471099909676,35318.75137314217,-4737.27342334669,5074.382433221631,4153.244692473972,0.0,0.0,0.0,2019-03-17T21:15:57.902298,3,EyesClosed
6657.578844735485,11875.817105271472,-5610.824300149,-6015.18970908996,35804.72300108946,-4570.395299243367,5623.676553210802,4696.88382111595,0.0,0.0,0.0,2019-03-17T21:15:57.909154,3,EyesClosed
6476.105031502847,11690.49879199252,-5758.926958909865,-6179.117402925182,35824.95132982151,-4000.5375743553136,5501.680731973735,4622.340753357501,0.0,0.0,0.0,2019-03-17T21:15:57.909744,3,EyesClosed
5877.771184178732,11096.188258670361,-6391.794251417429,-6806.06148315209,35331.46951573724,-4112.832738498776,4917.473187145375,4050.314909257282,0.0,0.0,0.0,2019-03-17T21:15:57.917035,3,EyesClosed
6009.579421231678,11228.17530967895,-6307.997561454483,-6702.572906324018,35266.85062251695,-4683.606884909497,4980.147478598056,4067.905732143609,0.0,0.0,0.0,2019-03-17T21:15:57.917649,3,EyesClosed
6588.489602624131,11808.203078294167,-5685.523830118636,-6086.581180880211,35735.566703744735,-4663.82559106655,5555.168456455285,4621.91607021285,0.0,0.0,0.0,2019-03-17T21:15:57.925089,3,EyesClosed
6518.8639186458495,11731.648353534742,-5705.573344895047,-6125.897899377096,35847.19131555454,-4106.529546562379,5551.1004389644195,4662.708003843785,0.0,0.0,0.0,2019-03-17T21:15:57.925790,3,EyesClosed
5923.681667289933,11133.20274748835,-6329.611698342765,-6752.819627859549,35393.89793800091,-4052.7959528918213,4972.905513394537,4113.413883854614,-0.004,1.0,0.28600000000000003,2019-03-17T21:15:57.932185,3,EyesClosed
5898.73712047781,11113.086177478574,-6407.149899858225,-6812.856413466503,35210.568929978486,-4610.516680540643,4888.617085053574,3989.093481194196,0.0,0.0,0.0,2019-03-17T21:15:57.938682,3,EyesClosed
6511.420787742232,11736.297516381444,-5771.376880571471,-6174.289426122836,35660.554249352725,-4718.050923115125,5478.0772898289315,4547.037726287571,0.0,0.0,0.0,2019-03-17T21:15:57.939408,3,EyesClosed
6600.224268463167,11830.353657049378,-5627.878681168399,-6054.014689208829,35887.75973174092,-4182.681939921611,5623.900070655354,4729.047981387136,0.0,0.0,0.0,2019-03-17T21:15:57.946631,3,EyesClosed
6008.171261330994,11230.924574246952,-6234.885005341173,-6668.888827429871,35473.64896221745,-4003.4656528789587,5068.168648263055,4207.02298963344,0.0,0.0,0.0,2019-03-17T21:15:57.947275,3,EyesClosed
5850.703221643355,11071.243711858238,-6446.7795427774845,-6867.059393770623,35198.878967628356,-4501.618981554387,4860.856218440083,3967.255826861361,0.0,0.0,0.0,2019-03-17T21:15:57.954794,3,EyesClosed
6406.389940546745,11636.385218666222,-5872.429117253914,-6287.545715277876,35564.285285983715,-4757.814676501117,5385.474012550594,4453.115696086371,0.0,0.0,0.0,2019-03-17T21:15:57.955553,3,EyesClosed
6644.525425973586,11872.77726802555,-5575.955578798721,-6011.769892188298,35887.692676507555,-4284.5611911489,5666.346033375983,4758.999318957248,0.0,0.0,0.0,2019-03-17T21:15:57.961260,3,EyesClosed
6124.355629009679,11343.5773663017,-6105.311942733758,-6548.591738771408,35563.48062318333,-3963.3442715816823,5184.755347341937,4321.4192177557015,0.0,0.0,0.0,2019-03-17T21:15:57.961904,3,EyesClosed
5808.346665900549,11034.94447886282,-6471.94760703416,-6895.133184806488,35190.988801835636,-4387.781547043508,4837.76686641775,3955.7893819557885,0.0,0.0,0.0,2019-03-17T21:15:57.969201,3,EyesClosed
6309.696294033086,11546.262985022424,-5978.7787173722645,-6385.803983903406,35473.24663081725,-4751.064449675614,5286.008749724478,4364.20045664316,-0.004,1.004,0.28200000000000003,2019-03-17T21:15:57.970050,3,EyesClosed
6677.650711256351,11911.646951633329,-5564.287968193051,-5987.495897709835,35867.12907160867,-4375.823363759919,5675.912580002854,4771.493944107765,0.0,0.0,0.0,2019-03-17T21:15:57.977320,3,EyesClosed
6246.28439501338,11463.293309604325,-5982.489106951846,-6417.789330218951,35652.41821437099,-3944.814675428233,5303.197241210609,4444.622033193354,0.0,0.0,0.0,2019-03-17T21:15:57.978094,3,EyesClosed
5811.632372335479,11029.423597982359,-6469.891246544272,-6889.522896948207,35216.7603631926,-4278.70503410161,4849.948567145892,3980.4880595789027,0.0,0.0,0.0,2019-03-17T21:15:57.984461,3,EyesClosed
6181.397280859624,11415.572335192244,-6121.896937119596,-6518.618049456841,35367.96991443275,-4759.401650357443,5169.578512856783,4248.17255117566,0.0,0.0,0.0,2019-03-17T21:15:57.985135,3,EyesClosed
6660.46221977022,11906.528402153064,-5591.378282472883,-5996.526002469779,35819.78807685233,-4487.3585685919015,5664.31202463055,4743.867187961005,0.0,0.0,0.0,2019-03-17T21:15:57.991033,3,EyesClosed
6343.693297349608,11586.607883764254,-5876.295969044682,-6300.397968339678,35721.75332567136,-3973.156687397562,5410.820890762912,4536.487702904667,0.0,0.0,0.0,2019-03-17T21:15:57.998883,3,EyesClosed
5825.043419008663,11048.7578569362,-6452.211016680124,-6866.478248414785,35247.82928798548,-4184.045396333385,4866.757078976283,3997.7883097873105,0.0,0.0,0.0,2019-03-17T21:15:57.999534,3,EyesClosed
6085.77651807982,11306.831098417175,-6231.442836695056,-6624.207690263712,35290.63287861739,-4717.849757415028,5063.76535460536,4141.644137101667,0.0,0.0,0.0,2019-03-17T21:15:58.006733,3,EyesClosed
6641.642050938851,11869.290395890523,-5619.854404908944,-6021.71641847091,35779.689047299515,-4573.658653933841,5635.031239394098,4697.062635071592,0.0,0.0,0.0,2019-03-17T21:15:58.007630,3,EyesClosed
6446.265452655012,11675.07608831836,-5766.906531680409,-6191.567324586788,35788.47328287045,-4038.5355399293353,5503.155947107786,4614.96467768725,-0.004,1.006,0.278,2019-03-17T21:15:58.013475,3,EyesClosed
5862.102611315562,11087.024043443686,-6390.833126405851,-6814.622201278473,35305.072105535524,-4111.469282087002,4918.255498201311,4048.8620458676874,0.0,0.0,0.0,2019-03-17T21:15:58.014115,3,EyesClosed
5958.148057240017,11187.182210347917,-6339.558224625376,-6739.319174208543,35219.554331249514,-4675.515553416676,4960.254426032833,4040.033106807841,0.0,0.0,0.0,2019-03-17T21:15:58.021381,3,EyesClosed
6565.690823279718,11803.24099102509,-5691.111766232463,-6090.20216348197,35705.995345830364,-4663.669128855363,5563.639767603847,4619.412674833855,0.0,0.0,0.0,2019-03-17T21:15:58.022100,3,EyesClosed
6537.572328754942,11773.42376392171,-5674.683234057812,-6091.923247805029,35845.44787948702,-4110.463453586513,5593.613456918413,4691.318236746578,0.0,0.0,0.0,2019-03-17T21:15:58.030030,3,EyesClosed
5939.730219808844,11169.412573505948,-6313.8313667573175,-6730.490235148697,35386.18658616383,-4045.3304702437486,5005.293191110277,4128.970697995508,0.0,0.0,0.0,2019-03-17T21:15:58.030779,3,EyesClosed
5897.865402444053,11131.369904443014,-6409.139205114747,-6806.352055830009,35195.86148212689,-4581.682930193297,4910.141814964034,3992.379187629126,0.0,0.0,0.0,2019-03-17T21:15:58.038251,3,EyesClosed
6494.2099445116455,11732.65418203523,-5789.750014513733,-6185.241780905936,35627.76424023679,-4726.477530774776,5483.464060242661,4529.424551656789,0.0,0.0,0.0,2019-03-17T21:15:58.039141,3,EyesClosed
6629.661515910807,11863.25542488759,-5604.2752390235955,-6018.698932969443,35886.48568230697,-4193.343722026792,5669.676443299823,4749.723345008296,0.0,0.0,0.0,2019-03-17T21:15:58.044419,3,EyesClosed
6058.306224144248,11282.132420794062,-6187.678121051565,-6608.606172633908,35497.43121831789,-3975.101289165174,5131.714657749493,4252.84406576682,0.0,0.0,0.0,2019-03-17T21:15:58.045112,3,EyesClosed
5842.813055850632,11070.036717657653,-6467.879589543294,-6863.080783257578,35171.98981904863,-4490.733682004653,4858.464581783364,3954.8282569442104,-0.01,1.002,0.28,2019-03-17T21:15:58.051155,3,EyesClosed
6395.370530530278,11634.261802942969,-5909.734178749822,-6296.441709571089,35520.74408778478,-4775.763127298728,5368.576093742382,4422.762027116064,0.0,0.0,0.0,2019-03-17T21:15:58.051933,3,EyesClosed
6678.880057201392,11920.587649415453,-5562.812753059001,-5971.872028335575,35886.30686835133,-4295.312380231903,5701.125347748441,4777.663025577429,0.0,0.0,0.0,2019-03-17T21:15:58.059441,3,EyesClosed
6147.64614673211,11386.671529611533,-6092.124413505127,-6509.43148248571,35565.067597039655,-3965.4676873049366,5216.427769235107,4340.5746627539,0.0,0.0,0.0,2019-03-17T21:15:58.066252,3,EyesClosed
5797.617828562001,11029.04361832662,-6502.055406815459,-6901.525783720706,35163.4514526667,-4394.218849446636,4827.887395368504,3933.5046927338476,0.0,0.0,0.0,2019-03-17T21:15:58.067098,3,EyesClosed
6269.418450524623,11505.538106624856,-6039.374296590602,-6421.522071542987,35419.15540923541,-4792.951618784859,5248.904853928668,4307.1588047932155,0.0,0.0,0.0,2019-03-17T21:15:58.073647,3,EyesClosed
6671.0122431531245,11911.512841166597,-5580.671796878791,-5973.056670791706,35849.158269066604,-4417.531718913522,5683.176896950829,4755.981833455781,0.0,0.0,0.0,2019-03-17T21:15:58.074398,3,EyesClosed
6243.244557767458,11481.979367968961,-5986.110089553606,-6390.743719428029,35647.076147446176,-3975.5036205653696,5317.792930339924,4440.978698847139,0.0,0.0,0.0,2019-03-17T21:15:58.081460,3,EyesClosed
5778.752956241722,11017.644228654413,-6504.625857427819,-6899.469423230818,35193.31338325899,-4296.117043032294,4834.570566960641,3945.9546143954535,0.0,0.0,0.0,2019-03-17T21:15:58.081831,3,EyesClosed
6152.943510168017,11395.388709949102,-6157.302100336802,-6538.734619466618,35349.06033862357,-4781.306359923645,5149.372535869185,4205.659533221667,0.0,0.0,0.0,2019-03-17T21:15:58.089460,3,EyesClosed
6666.541894262064,11909.456480676708,-5593.278180751584,-5989.507554710813,35826.96298682249,-4521.869662030896,5671.956321234265,4729.629126742974,-0.002,1.004,0.28,2019-03-17T21:15:58.089747,3,EyesClosed
6369.464858706577,11608.065558441349,-5856.4476199683695,-6268.837305168785,35743.188648603995,-4002.2363069339167,5439.945213788177,4545.540159409065,0.0,0.0,0.0,2019-03-17T21:15:58.097786,3,EyesClosed
5827.613869621024,11055.306918061606,-6453.328603902889,-6855.4364866538635,35258.80399451304,-4190.415643503147,4882.202134394901,3994.83787951921,0.0,0.0,0.0,2019-03-17T21:15:58.098448,3,EyesClosed
6046.884482727585,11282.400641727525,-6276.86158142824,-6655.969519134703,35269.86810801841,-4739.620356514497,5038.7761043043265,4101.880383715676,0.0,0.0,0.0,2019-03-17T21:15:58.104863,3,EyesClosed
6613.2106319917,11862.316651620467,-5657.606501293958,-6045.833950738186,35757.49376505539,-4630.007401705671,5614.8252624065,4662.126858487947,0.0,0.0,0.0,2019-03-17T21:15:58.105645,3,EyesClosed
6478.340205948378,11721.768882485496,-5749.963909383287,-6156.475085791956,35817.955233807,-4065.581150720257,5537.063543446487,4635.327116886034,0.0,0.0,0.0,2019-03-17T21:15:58.112537,3,EyesClosed
5883.1579545924615,11118.540003125669,-6392.26363805099,-6794.192706846322,35328.02734709112,-4119.404151368636,4938.796751355738,4055.031127337352,0.0,0.0,0.0,2019-03-17T21:15:58.113176,3,EyesClosed
5941.138379709528,11178.733250943811,-6381.467745479077,-6762.833209375526,35204.71277293119,-4692.525230947164,4936.047486787736,4005.767882557855,0.0,0.0,0.0,2019-03-17T21:15:58.119856,3,EyesClosed
6536.141817109802,11785.203133249657,-5746.253519803706,-6130.256489545881,35667.684455833965,-4721.895423161438,5518.33278159294,4567.757793397641,0.0,0.0,0.0,2019-03-17T21:15:58.125828,3,EyesClosed
6544.546073024997,11795.037900809992,-5688.384853408916,-6087.318788447236,35840.172867795576,-4158.318538465326,5586.863230092911,4679.4047569519,0.0,0.0,0.0,2019-03-17T21:15:58.126503,3,EyesClosed
5954.348260682615,11202.783727977721,-6306.678808531619,-6704.5845633249955,35408.02424049666,-4044.749324887911,5024.247470408377,4144.303994691849,-0.002,1.002,0.28400000000000003,2019-03-17T21:15:58.133819,3,EyesClosed
5846.568148919124,11097.439956359858,-6475.009796024537,-6854.363602920009,35155.69539734071,-4613.869442208939,4858.352823061088,3942.9594806384425,0.0,0.0,0.0,2019-03-17T21:15:58.134515,3,EyesClosed
6438.822321751395,11696.89139090674,-5866.148277061972,-6238.573043176299,35569.91792558646,-4786.7825373151945,5415.894736754267,4471.913513173284,0.0,0.0,0.0,2019-03-17T21:15:58.142189,3,EyesClosed
6612.115396513391,11872.933730236737,-5636.126474872408,-6028.600755763145,35867.12907160867,-4247.949033731107,5645.1342278878965,4734.948841923338,0.0,0.0,0.0,2019-03-17T21:15:58.142865,3,EyesClosed
6043.531721059289,11294.314121522204,-6224.066761024805,-6627.225175765178,35482.76847395521,-4016.474368151947,5107.530070248851,4233.308641112882,0.0,0.0,0.0,2019-03-17T21:15:58.148727,3,EyesClosed
5814.180471203384,11058.704383218812,-6517.3887035118,-6904.252696544254,35152.40969090578,-4506.312847890002,4822.768845888239,3918.0149338263195,0.0,0.0,0.0,2019-03-17T21:15:58.149525,3,EyesClosed
6343.514483393966,11599.907171715162,-5974.777755114765,-6352.566939898365,35486.7247327238,-4817.225613263323,5315.4236454276615,4366.882665977796,0.0,0.0,0.0,2019-03-17T21:15:58.156785,3,EyesClosed
6640.0774288269795,11897.855925304404,-5617.0157333631205,-6011.479319510379,35854.85796390271,-4372.5823608139,5652.599710535969,4726.254013330223,0.0,0.0,0.0,2019-03-17T21:15:58.157785,3,EyesClosed
6146.819132187264,11396.103965771672,-6105.736625878409,-6508.582116196409,35576.04230356721,-3999.6211528326457,5212.024475577411,4331.902185905241,0.0,0.0,0.0,2019-03-17T21:15:58.165552,3,EyesClosed
5783.044491177141,11025.08735955803,-6531.157378096268,-6918.155481595455,35175.56609816147,-4392.475413379123,4811.503566682764,3916.8973466035545,0.0,0.0,0.0,2019-03-17T21:15:58.166481,3,EyesClosed
6215.37193243169,11465.573187538766,-6110.631657914121,-6477.960226292637,35391.9533362333,-4822.14299704349,5198.591077159772,4253.112286700283,-0.002,1.004,0.28600000000000003,2019-03-17T21:15:58.171892,3,EyesClosed
6627.1581205318125,11891.888009534838,-5638.562815018036,-6019.5706510032005,35820.2574634859,-4483.625827267865,5646.028297666108,4709.5349084776535,0.0,0.0,0.0,2019-03-17T21:15:58.172630,3,EyesClosed
6253.5263602169,11513.785900328863,-5997.777700159276,-6392.26363805099,35659.77193829679,-4004.7620540573666,5326.599517655315,4441.984527347628,0.0,0.0,0.0,2019-03-17T21:15:58.178589,3,EyesClosed
5785.056148178119,11035.458568985292,-6521.43436925821,-6903.291571532675,35208.78079042206,-4283.533010903956,4837.6774594399285,3948.390954541082,0.0,0.0,0.0,2019-03-17T21:15:58.186275,3,EyesClosed
6110.475195702934,11370.511218370346,-6221.093979012248,-6580.487678109131,35320.42775397632,-4787.050758248658,5110.704017961504,4171.863695605242,0.0,0.0,0.0,2019-03-17T21:15:58.186994,3,EyesClosed
6618.753864616617,11888.378785655355,-5655.438382081793,-6027.393761562558,35788.8979660151,-4569.344767253968,5636.68526848379,4697.733187405252,0.0,0.0,0.0,2019-03-17T21:15:58.194339,3,EyesClosed
6355.182093999636,11617.274477156936,-5888.6117802395565,-6279.789659951885,35732.2362938209,-4045.9786708329525,5431.160978217242,4544.891958819861,0.0,0.0,0.0,2019-03-17T21:15:58.195240,3,EyesClosed
5790.822898247588,11042.298202788616,-6503.552973693964,-6886.348949235553,35237.63689251386,-4210.219289090549,4862.085564385124,3985.003111958875,0.0,0.0,0.0,2019-03-17T21:15:58.201553,3,EyesClosed
5992.122708812083,11251.398772168013,-6335.847835045795,-6698.638999299884,35237.815706469504,-4748.538702552164,5007.8412899781815,4082.859049184209,0.0,0.0,0.0,2019-03-17T21:15:58.202276,3,EyesClosed
6575.391480373321,11843.384724066822,-5707.048560029097,-6078.4451458984795,35722.02154660482,-4660.808105565084,5586.0809190369755,4649.229901937235,0.0,0.0,0.0,2019-03-17T21:15:58.209076,3,EyesClosed
6458.245987683057,11721.344199340845,-5781.85984872101,-6175.4740685789675,35789.121483459654,-4105.14373840615,5528.23460438664,4636.779980275629,-0.01,1.004,0.28400000000000003,2019-03-17T21:15:58.209717,3,EyesClosed
5866.550608462168,11121.065750249118,-6413.184870861158,-6804.921544184869,35317.11969579693,-4115.693761789055,4941.031925801269,4072.733708945955,0.0,0.0,0.0,2019-03-17T21:15:58.216903,3,EyesClosed
5909.823585727642,11169.59138746159,-6418.616344763797,-6790.012930633179,35184.35033373241,-4672.609826637487,4917.652001101017,4007.7571878143776,0.0,0.0,0.0,2019-03-17T21:15:58.217554,3,EyesClosed
6513.901831376771,11782.610330892841,-5783.6032847885235,-6152.831751445741,35641.10823167661,-4731.238452343757,5501.27840057354,4562.751002639652,0.0,0.0,0.0,2019-03-17T21:15:58.225146,3,EyesClosed
6547.652965504285,11812.919296374237,-5697.41495816886,-6084.949503534974,35832.260350258395,-4181.586704443301,5593.792270874056,4695.341550748533,0.0,0.0,0.0,2019-03-17T21:15:58.225844,3,EyesClosed
5946.011060000785,11203.87896345603,-6325.767198296452,-6710.463072116741,35397.96595549178,-4052.035993580341,5023.532214585807,4153.490561662979,0.0,0.0,0.0,2019-03-17T21:15:58.231523,3,EyesClosed
5835.39227669147,11089.974473711787,-6502.167165537735,-6868.221684482299,35144.631283835326,-4587.606142473954,4848.093372356102,3940.165512581529,0.0,0.0,0.0,2019-03-17T21:15:58.232129,3,EyesClosed
6419.689228497652,11687.593065213332,-5897.038387899207,-6262.377651021201,35547.94616078689,-4792.035197262192,5397.566306300915,4450.075858840449,0.0,0.0,0.0,2019-03-17T21:15:58.238657,3,EyesClosed
6610.416663934787,11883.21553268618,-5640.887396441388,-6026.566747017711,35860.75882443891,-4279.017958523984,5647.570568033525,4728.109208120013,0.0,0.0,0.0,2019-03-17T21:15:58.246591,3,EyesClosed
6070.197352194471,11334.457854563934,-6192.573153087277,-6585.8968002673155,35517.54778832767,-3994.636713819112,5145.036297444856,4268.110307229795,0.0,0.0,0.0,2019-03-17T21:15:58.247249,3,EyesClosed
5809.57601184559,11069.723793235278,-6518.8639186458495,-6894.216763283821,35169.53112715854,-4465.029175881049,4832.178930303923,3931.6271461996016,-0.006,1.006,0.29,2019-03-17T21:15:58.253806,3,EyesClosed
6305.896497475684,11576.169619103626,-6024.376276061092,-6386.251018792513,35454.13588930797,-4823.439398221898,5281.9630839780675,4336.95368015214,0.0,0.0,0.0,2019-03-17T21:15:58.254277,3,EyesClosed
6637.976364848181,11918.2630679921,-5632.796064948567,-6009.691179953955,35839.43526022855,-4394.2635529355475,5653.650242525368,4727.639821486452,0.0,0.0,0.0,2019-03-17T21:15:58.261366,3,EyesClosed
6176.41284184609,11448.608213497188,-6087.765823336342,-6476.686176858685,35588.201652550895,-3992.4015393735817,5242.042868380889,4366.145058410771,0.0,0.0,0.0,2019-03-17T21:15:58.262432,3,EyesClosed
5789.973531958286,11058.927900663364,-6533.236090330612,-6902.732777921293,35180.86346159738,-4354.857427460841,4834.458808238364,3941.908948649043,0.0,0.0,0.0,2019-03-17T21:15:58.270555,3,EyesClosed
6209.292257939846,11484.259245903402,-6135.799722170797,-6487.95145606416,35379.25754538269,-4800.707674110851,5203.195536517565,4259.616644336777,0.0,0.0,0.0,2019-03-17T21:15:58.271198,3,EyesClosed
6635.294155513544,11914.887954579348,-5655.304271615061,-6020.6211829926,35807.584024379736,-4497.506260574611,5657.606501293958,4720.822539427583,0.0,0.0,0.0,2019-03-17T21:15:58.277087,3,EyesClosed
6279.253218084958,11547.894662367662,-5987.630008176567,-6368.92841683965,35669.159670968016,-4007.6007256031903,5356.997890114533,4475.623902752865,0.0,0.0,0.0,2019-03-17T21:15:58.277644,3,EyesClosed
5779.758784742211,11046.969717379776,-6535.135988609313,-6909.639466957983,35205.20451130921,-4265.22693219506,4842.080753097624,3962.584312270202,0.0,0.0,0.0,2019-03-17T21:15:58.283977,3,EyesClosed
6080.702672088465,11355.602604818656,-6264.322252788813,-6619.223251250178,35288.35300068295,-4779.115888967024,5080.350348991197,4153.423506429614,0.0,0.0,0.0,2019-03-17T21:15:58.284620,3,EyesClosed
6627.873376354382,11908.294189965032,-5667.821248510033,-6034.926299443996,35772.73765477391,-4574.709185923241,5626.984611390187,4699.07429207257,-0.008,1.008,0.28600000000000003,2019-03-17T21:15:58.292020,3,EyesClosed
6385.424004247667,11665.263672502479,-5873.837277154598,-6261.371822520712,35739.50061076887,-4051.7901243913325,5444.750838846068,4564.874418362906,0.0,0.0,0.0,2019-03-17T21:15:58.292724,3,EyesClosed
5839.817922093621,11112.639142589467,-6460.70467957314,-6841.287832413654,35283.43561690278,-4152.6635471181335,4902.274000915766,4028.4101996910813,0.0,0.0,0.0,2019-03-17T21:15:58.299067,3,EyesClosed
5981.259761006804,11261.144132750527,-6361.954672569594,-6720.297839677077,35227.824476697984,-4726.075199374581,4980.259237320332,4053.555912203302,0.0,0.0,0.0,2019-03-17T21:15:58.299883,3,EyesClosed
6553.486770807121,11840.881328687827,-5748.846322160522,-6110.430492214024,35691.176139256495,-4691.318236746578,5545.311337150495,4597.485613523199,0.0,0.0,0.0,2019-03-17T21:15:58.307316,3,EyesClosed
6485.3810054518,11772.753211588051,-5774.148496883929,-6152.384716556635,35802.398419666104,-4116.833700756276,5535.3648108678835,4632.801369762584,0.0,0.0,0.0,2019-03-17T21:15:58.313505,3,EyesClosed
5890.8469546850865,11171.670099695933,-6402.947771900627,-6776.087793837523,35344.433527521316,-4095.1301568901727,4953.951234096437,4075.035938624852,0.0,0.0,0.0,2019-03-17T21:15:58.314492,3,EyesClosed
5903.5203937912465,11179.269692810738,-6451.361650390822,-6801.367616816476,35189.31242100149,-4653.342622917012,4903.257477671799,3979.1693066560397,0.0,0.0,0.0,2019-03-17T21:15:58.321522,3,EyesClosed
6513.320686020933,11796.937799088693,-5816.10272122654,-6169.349690598213,35641.0635281877,-4739.88857744796,5485.98980736611,4532.866720302906,0.0,0.0,0.0,2019-03-17T21:15:58.322465,3,EyesClosed
6586.232076434145,11880.756840796095,-5681.813440539056,-6059.446163111468,35861.51878375039,-4191.600285959278,5614.78055891759,4704.21519329729,0.0,0.0,0.0,2019-03-17T21:15:58.329428,3,EyesClosed
5986.177144786971,11272.744688122832,-6297.760462493952,-6682.724557247706,35438.936703078354,-4034.087542782729,5044.8781305406255,4172.601303172267,-0.004,1.002,0.28,2019-03-17T21:15:58.330190,3,EyesClosed
5839.236776737783,11120.149328726451,-6507.151604551269,-6872.423812439896,35165.70897885668,-4550.301080978046,4841.097276341591,3936.1869020684844,0.0,0.0,0.0,2019-03-17T21:15:58.336788,3,EyesClosed
6420.516243042498,11711.107100380314,-5914.964486952364,-6274.0899651157815,35553.62350387854,-4780.591104101075,5387.575076529393,4443.035059337028,0.0,0.0,0.0,2019-03-17T21:15:58.337642,3,EyesClosed
6630.488530455653,11917.056073791513,-5653.1138006584415,-6030.075970897195,35853.85213540222,-4308.321095504892,5636.484102783693,4725.672867974386,0.0,0.0,0.0,2019-03-17T21:15:58.344168,3,EyesClosed
6091.833840827208,11378.311977185247,-6191.254400164414,-6578.364262385877,35523.3815936305,-4000.939905755509,5149.976032969479,4279.688510857643,0.0,0.0,0.0,2019-03-17T21:15:58.344811,3,EyesClosed
5793.505107582225,11084.38653759796,-6546.065991647958,-6919.138958351488,35157.68470259723,-4456.759030432586,4815.973915573825,3919.333686749183,0.0,0.0,0.0,2019-03-17T21:15:58.352433,3,EyesClosed
6297.849869471774,11595.86150596875,-6044.470494326412,-6406.501699269021,35445.82104037059,-4815.57158417363,5275.525781574939,4332.23746207207,0.0,0.0,0.0,2019-03-17T21:15:58.353171,3,EyesClosed
6652.192074321756,11950.896614896848,-5632.438437037282,-6008.730054942376,35845.06789983129,-4407.741654842098,5670.861085755955,4742.839007716061,0.0,0.0,0.0,2019-03-17T21:15:58.360408,3,EyesClosed
6209.89575504014,11507.773281070386,-6065.056450969751,-6453.976804492093,35620.96930992238,-3987.417100360048,5284.488831101517,4401.572573372433,0.0,0.0,0.0,2019-03-17T21:15:58.361053,3,EyesClosed
5797.796642517644,11089.460383589314,-6541.774456712539,-6922.223499086321,35188.619516923376,-4351.4152588147235,4833.7435524157945,3937.30448929125,0.0,0.0,0.0,2019-03-17T21:15:58.366529,3,EyesClosed
6188.862763507696,11474.245664387425,-6182.760737271397,-6547.34004108191,35341.86307690896,-4839.733819929817,5151.048916703334,4207.224155333538,-0.004,1.004,0.28,2019-03-17T21:15:58.373683,3,EyesClosed
6647.0064696081245,11938.245527535144,-5662.434478096304,-6040.715401257921,35787.69097181451,-4548.579996654988,5628.616288735425,4694.223963525768,0.0,0.0,0.0,2019-03-17T21:15:58.374626,3,EyesClosed
6278.247389584469,11578.33773831579,-5975.716528381888,-6369.7107278955855,35667.39388315605,-4047.2750720113604,5349.53240746646,4468.069013126971,0.0,0.0,0.0,2019-03-17T21:15:58.381960,3,EyesClosed
5789.593552302546,11086.599360299035,-6511.241973786589,-6891.534553949185,35231.2666453441,-4243.992774962518,4854.441267781409,3975.6600827765565,0.0,0.0,0.0,2019-03-17T21:15:58.382958,3,EyesClosed
6067.559846348745,11371.96408175994,-6273.486468015489,-6631.248489767134,35293.58330888549,-4769.549342340153,5068.3027587297875,4139.073686489307,0.0,0.0,0.0,2019-03-17T21:15:58.389707,3,EyesClosed
6599.576067873963,11911.870469077883,-5693.257533700173,-6059.937901489485,35758.41018657806,-4616.86457596595,5609.706712926235,4671.916922559371,0.0,0.0,0.0,2019-03-17T21:15:58.390394,3,EyesClosed
6404.624152734775,11708.491946279044,-5854.503018200758,-6240.115313543715,35760.13127090112,-4067.1681245765835,5472.869333370845,4584.856877905951,0.0,0.0,0.0,2019-03-17T21:15:58.396382,3,EyesClosed
5860.783858392699,11156.605023933056,-6442.309193886423,-6822.9817537047575,35309.341288726486,-4131.9434800080635,4925.11748374909,4053.935891859042,0.0,0.0,0.0,2019-03-17T21:15:58.397023,3,EyesClosed
5969.770964356776,11273.437592200946,-6373.7563936419965,-6734.893528806392,35230.14905812134,-4705.399835753422,4978.336987297176,4057.6462814386227,0.0,0.0,0.0,2019-03-17T21:15:58.404383,3,EyesClosed
6552.749163240095,11863.25542488759,-5744.37597326946,-6115.929021350029,35697.03229630378,-4692.5699344360755,5555.3249186664725,4611.678971252319,0.0,0.0,0.0,2019-03-17T21:15:58.405163,3,EyesClosed
6511.1749185532235,11816.942610376193,-5735.837606887532,-6128.602460456188,35836.37307123817,-4127.33902065027,5579.107174766919,4675.716719116774,-0.006,1.004,0.276,2019-03-17T21:15:58.412534,3,EyesClosed
5909.935344449919,11205.376530334537,-6372.348233741312,-6763.570816942552,35379.41400759387,-4083.864877684698,4996.6877694949835,4115.6714100446,0.0,0.0,0.0,2019-03-17T21:15:58.413177,3,EyesClosed
5886.7342337053105,11185.662291724955,-6455.496723115054,-6825.0381141946455,35195.36974374887,-4639.886872754917,4907.325495162666,3986.523030581836,0.0,0.0,0.0,2019-03-17T21:15:58.419669,3,EyesClosed
6474.7192233466185,11786.81245885044,-5839.6614598824335,-6209.5157753844,35621.72926923386,-4770.689281307374,5472.802278137479,4522.5178626201,0.0,0.0,0.0,2019-03-17T21:15:58.420563,3,EyesClosed
6564.684994779229,11876.487657605132,-5695.358597678972,-6084.569523879233,35847.079556832265,-4246.607929063789,5622.000172376654,4706.137443320446,0.0,0.0,0.0,2019-03-17T21:15:58.426359,3,EyesClosed
5992.770909401287,11295.14113606705,-6289.266799600935,-6681.025824669102,35452.30304626263,-4045.3751737326593,5080.1491832911,4201.412701775158,0.0,0.0,0.0,2019-03-17T21:15:58.434088,3,EyesClosed
5805.887974010465,11108.571125098602,-6533.504311264076,-6906.756091923248,35154.488403140116,-4560.4264212163,4847.087543855613,3932.163588066529,0.0,0.0,0.0,2019-03-17T21:15:58.434879,3,EyesClosed
6385.647521692219,11691.4599170041,-5948.55915886869,-6315.239526658002,35533.21636119084,-4811.078883538114,5382.1659543712085,4425.645402150798,0.0,0.0,0.0,2019-03-17T21:15:58.443515,3,EyesClosed
6661.512751759619,11965.089972625969,-5617.39571301886,-6001.197517060938,35894.755827755434,-4310.466862972601,5696.565591879558,4772.410365630432,0.0,0.0,0.0,2019-03-17T21:15:58.444315,3,EyesClosed
6126.859024388675,11425.608268452677,-6149.568396755266,-6541.260366590067,35572.77894887674,-3987.484155593414,5213.678504667104,4334.740857451065,0.0,0.0,0.0,2019-03-17T21:15:58.449762,3,EyesClosed
5812.124110713496,11112.259162933728,-6526.329401293922,-6898.4635947303295,35196.710848416194,-4412.256707222069,4857.81638119416,3956.750506967367,-0.01,1.004,0.276,2019-03-17T21:15:58.450515,3,EyesClosed
6291.144346135181,11603.997540950482,-6053.545302575267,-6412.715484227596,35458.33801726556,-4800.953543299859,5284.600589823794,4340.328793564891,0.0,0.0,0.0,2019-03-17T21:15:58.456828,3,EyesClosed
6662.406821537831,11975.237664608678,-5621.73195144319,-5996.391892003047,35860.66941746109,-4429.534605686022,5683.26630392865,4757.769973012206,0.0,0.0,0.0,2019-03-17T21:15:58.457634,3,EyesClosed
6234.259156496425,11541.390304731167,-6036.177997133494,-6420.650353509231,35651.255923659315,-3990.9263242395314,5309.81335756938,4432.328573742935,0.0,0.0,0.0,2019-03-17T21:15:58.464817,3,EyesClosed
5789.52649706918,11101.932656995376,-6540.545110767497,-6906.353760523053,35207.03735435454,-4318.804063654431,4838.280956540222,3953.285986576794,0.0,0.0,0.0,2019-03-17T21:15:58.465455,3,EyesClosed
6168.142696397626,11494.31753090829,-6182.514868082389,-6531.336192051911,35364.30422834209,-4792.795156573672,5157.30740515082,4223.228004363537,0.0,0.0,0.0,2019-03-17T21:15:58.471665,3,EyesClosed
6658.0929348579575,11990.70507177175,-5639.0322016515975,-6002.76213917281,35829.42167871257,-4523.367228909401,5660.914559473344,4729.271498831689,0.0,0.0,0.0,2019-03-17T21:15:58.472299,3,EyesClosed
6346.867245062262,11681.088707576837,-5927.8837952475305,-6304.8459654862845,35732.59392173218,-4009.992362259908,5410.440911107173,4528.441074900756,0.0,0.0,0.0,2019-03-17T21:15:58.479441,3,EyesClosed
5807.3184856556045,11139.640049891479,-6517.701627934173,-6882.705614889338,35249.10333741943,-4210.912193168663,4864.231331852833,3985.2489811478836,0.0,0.0,0.0,2019-03-17T21:15:58.480115,3,EyesClosed
6065.39172713658,11406.184602521016,-6291.166697879637,-6635.227100280178,35302.211082245245,-4729.204443598323,5067.341633718209,4139.6324801006895,0.0,0.0,0.0,2019-03-17T21:15:58.486571,3,EyesClosed
6614.64114363684,11957.89271091136,-5694.352769178483,-6046.191578649471,35777.27505889834,-4603.073549637026,5621.553137487547,4684.791527365628,-0.006,1.002,0.278,2019-03-17T21:15:58.494229,3,EyesClosed
6441.638641552764,11782.14094425928,-5827.300945198649,-6195.7247490554755,35801.906681288085,-4052.7959528918213,5510.800243711501,4622.899546968883,0.0,0.0,0.0,2019-03-17T21:15:58.495043,3,EyesClosed
5884.007320881763,11213.55726880518,-6425.321868100389,-6789.498840510708,35349.820297935046,-4092.224430110983,4957.348699253643,4084.7142439739996,0.0,0.0,0.0,2019-03-17T21:15:58.501580,3,EyesClosed
5983.830211619164,11319.772758456798,-6371.923550596661,-6719.560232110051,35266.35888413893,-4655.44368689581,4995.816051461226,4072.2866740568493,0.0,0.0,0.0,2019-03-17T21:15:58.502249,3,EyesClosed
6551.720982995151,11902.527439895564,-5769.924017181876,-6122.142806308604,35705.48125570789,-4700.1471758064245,5552.687412820746,4602.559459514554,0.0,0.0,0.0,2019-03-17T21:15:58.509383,3,EyesClosed
6511.1749185532235,11853.666526516263,-5756.155342597407,-6133.341030280713,35837.289492760836,-4161.581893155801,5573.72040435319,4665.97135853426,0.0,0.0,0.0,2019-03-17T21:15:58.510020,3,EyesClosed
5920.284202132726,11252.829283813153,-6374.851629120306,-6752.372592970442,35398.70356305881,-4071.9513978900195,5004.801452732259,4125.439122371569,0.0,0.0,0.0,2019-03-17T21:15:58.517696,3,EyesClosed
5882.822678425632,11211.567963548656,-6471.321758189411,-6826.379218861964,35205.96447062069,-4601.799500203073,4907.392550396032,3987.417100360048,0.0,0.0,0.0,2019-03-17T21:15:58.518400,3,EyesClosed
6470.137115733281,11803.106880558358,-5858.146352546973,-6213.069702752794,35623.40565006801,-4762.7767637701945,5465.828533867423,4512.258411915113,0.0,0.0,0.0,2019-03-17T21:15:58.524996,3,EyesClosed
6597.966742273181,11931.450597220732,-5680.9417225052985,-6053.277081641803,35872.0688071333,-4250.608891321289,5633.3325068154945,4719.16851033789,0.0,0.0,0.0,2019-03-17T21:15:58.525727,3,EyesClosed
6020.352962059136,11346.393686103069,-6271.988901136983,-6650.739210932161,35477.35935179703,-4032.9476038155085,5086.318264760765,4212.342704813803,-0.004,1.006,0.28600000000000003,2019-03-17T21:15:58.531627,3,EyesClosed
5828.686753354878,11152.335840742093,-6523.9154128927485,-6883.644388156461,35182.71865638717,-4512.928964248773,4847.5345787447195,3940.6348992150906,0.0,0.0,0.0,2019-03-17T21:15:58.532550,3,EyesClosed
6371.677681407653,11709.721292224085,-5973.950740569919,-6324.090817462304,35529.908303011456,-4804.038084034692,5356.349689525329,4404.545355384988,0.0,0.0,0.0,2019-03-17T21:15:58.539661,3,EyesClosed
6643.966632362203,11988.335786859489,-5639.188663862785,-6011.4122642770135,35883.55760378332,-4349.180084369193,5672.7386322902,4747.599929285041,0.0,0.0,0.0,2019-03-17T21:15:58.540502,3,EyesClosed
6139.890091406119,11479.520676078877,-6140.650050717599,-6529.8386251734055,35591.28619328573,-3998.972952243442,5213.74555990047,4333.5115115060225,0.0,0.0,0.0,2019-03-17T21:15:58.546800,3,EyesClosed
5784.3632441000045,11119.478776392792,-6555.453724319187,-6937.154464382465,35187.52428144506,-4423.276117238536,4817.315020241144,3917.67965765949,0.0,0.0,0.0,2019-03-17T21:15:58.547465,3,EyesClosed
6261.617691709721,11597.515535058445,-6087.765823336342,-6453.529769602987,35448.50324970523,-4815.19160451789,5245.663850982649,4299.827432611875,0.0,0.0,0.0,2019-03-17T21:15:58.553863,3,EyesClosed
6647.788780664061,11988.805173493049,-5643.3684400759275,-6020.352962059136,35859.104795349216,-4463.665719469276,5662.076850185019,4733.4289233003765,0.0,0.0,0.0,2019-03-17T21:15:58.561262,3,EyesClosed
6233.029810551383,11567.698307955065,-6048.829084495197,-6435.89424322775,35660.80011854173,-4017.2566792078833,5300.962066765078,4422.605564904877,0.0,0.0,0.0,2019-03-17T21:15:58.561940,3,EyesClosed
5792.4098721039145,11125.469043906814,-6549.709325994173,-6924.32456306512,35224.963453407705,-4301.28029600147,4834.548215216186,3945.9322626509984,0.0,0.0,0.0,2019-03-17T21:15:58.569171,3,EyesClosed
6142.035858873828,11483.342824380736,-6225.206699992025,-6582.789907788027,35355.72115847125,-4793.599819374063,5130.753532737915,4185.610018445256,-0.004,1.008,0.29,2019-03-17T21:15:58.569813,3,EyesClosed
6644.368963762398,11984.312472857533,-5668.0894694434965,-6041.453008824946,35824.95132982151,-4558.682985148786,5648.174065133818,4698.40373973891,0.0,0.0,0.0,2019-03-17T21:15:58.577653,3,EyesClosed
6352.008146286982,11687.83893440234,-5919.5465945657015,-6314.278401646424,35757.18084063302,-4041.3965632196146,5427.584699104393,4523.747208565141,0.0,0.0,0.0,2019-03-17T21:15:58.578324,3,EyesClosed
5809.508956612224,11138.63422139099,-6510.258497030556,-6898.061263330133,35278.11590172242,-4210.755730957476,4878.804669237694,3980.2198386454393,0.0,0.0,0.0,2019-03-17T21:15:58.584252,3,EyesClosed
6022.588136504667,11350.349944871657,-6341.324012437345,-6705.679798803306,35278.40647440034,-4758.999318957248,5023.152234930067,4076.1758775920725,0.0,0.0,0.0,2019-03-17T21:15:58.584999,3,EyesClosed
6578.096041452413,11915.402044701821,-5740.732638923245,-6108.999980568884,35748.709529484455,-4672.609826637487,5581.431756190272,4618.719770755741,0.0,0.0,0.0,2019-03-17T21:15:58.591989,3,EyesClosed
6436.497740328043,11774.429592422199,-5840.82375059411,-6227.196005248547,35798.75508531989,-4119.404151368636,5502.619505240858,4587.5614389850425,0.0,0.0,0.0,2019-03-17T21:15:58.592889,3,EyesClosed
5863.734288660799,11192.993663906296,-6459.005946994537,-6841.801922536126,35334.10702158297,-4138.269023688916,4930.861882074104,4038.312022484782,0.0,0.0,0.0,2019-03-17T21:15:58.599914,3,EyesClosed
5933.4046761279915,11264.18396999645,-6444.253795654035,-6805.703855240805,35219.44257252724,-4694.3357222480445,4934.907547820514,3998.1459376985954,0.0,0.0,0.0,2019-03-17T21:15:58.600711,3,EyesClosed
6528.072837361436,11874.58775932643,-5815.409817148426,-6177.597484302221,35670.545479124245,-4738.145141380446,5507.000447154099,4551.128095522892,0.0,0.0,0.0,2019-03-17T21:15:58.606843,3,EyesClosed
6541.774456712539,11883.908436764294,-5746.3876302704375,-6134.7938936703085,35834.74139389293,-4186.504088223468,5572.24518921914,4662.082154999037,-0.004,1.012,0.28200000000000003,2019-03-17T21:15:58.607457,3,EyesClosed
5963.043089275729,11304.28299954927,-6342.910986293672,-6738.9838980417135,35417.74724933472,-4054.89701687062,5021.297040140276,4141.577081868301,0.0,0.0,0.0,2019-03-17T21:15:58.613554,3,EyesClosed
5869.143410818984,11214.496042072302,-6496.512174190542,-6872.803792095637,35181.757531375595,-4593.417596032333,4864.611311508574,3954.560036010747,0.0,0.0,0.0,2019-03-17T21:15:58.621462,3,EyesClosed
6463.364537163322,11817.76962492104,-5890.31051281816,-6260.410697509134,35590.81680665217,-4778.020653488714,5421.9297077572,4478.708443487697,0.0,0.0,0.0,2019-03-17T21:15:58.622130,3,EyesClosed
6631.449655467231,11985.027728680103,-5662.50153332967,-6053.6794130419985,35879.22136535899,-4258.633167580744,5647.25764361115,4735.038248901159,0.0,0.0,0.0,2019-03-17T21:15:58.629481,3,EyesClosed
6058.462686355435,11401.378977463124,-6240.09296179926,-6640.099780571435,35503.93557595439,-4007.4889668809137,5122.975125667468,4251.279443654948,0.0,0.0,0.0,2019-03-17T21:15:58.630414,3,EyesClosed
5807.7208170558,11143.305735982149,-6553.956157440682,-6937.825016716125,35159.62930436484,-4498.489737330644,4824.780502889216,3924.1393118070737,0.0,0.0,0.0,2019-03-17T21:15:58.636148,3,EyesClosed
6341.8828060487285,11686.251960546013,-6019.660057981022,-6390.944885128127,35486.7247327238,-4815.683342895906,5319.983401296545,4369.587227056888,0.0,0.0,0.0,2019-03-17T21:15:58.636820,3,EyesClosed
6664.798458194549,12009.2346679252,-5640.730934230201,-6026.81261620672,35878.30494383633,-4357.897264706763,5686.5743621080355,4755.8477229890495,0.0,0.0,0.0,2019-03-17T21:15:58.644036,3,EyesClosed
6154.2846148353365,11491.903542507118,-6148.719030465964,-6543.003802657581,35583.50778621528,-4000.9175540110537,5226.642516451182,4346.386116312279,0.0,0.0,0.0,2019-03-17T21:15:58.645089,3,EyesClosed
5780.921075453887,11120.126976981996,-6581.940541498726,-6956.1087436805665,35173.353275460395,-4389.882611022307,4819.326677242122,3926.642707186068,0.0,0.0,0.0,2019-03-17T21:15:58.652291,3,EyesClosed
6220.781054589875,11570.469924267521,-6154.955167168995,-6510.593773197386,35393.69677230081,-4818.522014441731,5209.431673220596,4267.439754896135,-0.002,1.01,0.28400000000000003,2019-03-17T21:15:58.653231,3,EyesClosed
6654.024917367091,12005.52427834562,-5665.496667086682,-6027.4384650514685,35837.53536194985,-4472.494658529122,5667.731841532212,4739.307432092122,0.0,0.0,0.0,2019-03-17T21:15:58.659411,3,EyesClosed
6256.968528863016,11600.957703704562,-6045.252805382348,-6419.912745942205,35658.00615048482,-4018.9777635309415,5327.828863600357,4447.348946016901,0.0,0.0,0.0,2019-03-17T21:15:58.660203,3,EyesClosed
5761.273892077672,11101.843250017555,-6600.82776556346,-6961.584921072116,35183.12098778737,-4314.0878455743605,4815.705694640362,3922.261765272828,0.0,0.0,0.0,2019-03-17T21:15:58.666876,3,EyesClosed
6091.140936749093,11439.354591292691,-6300.643837528687,-6639.764504404606,35291.32578269551,-4814.945735328882,5084.261904270877,4137.374953910703,0.0,0.0,0.0,2019-03-17T21:15:58.667514,3,EyesClosed
6623.917117585793,11979.864475710927,-5714.536394421625,-6063.447125368968,35772.84941349619,-4592.05413962056,5628.526881757603,4675.627312138952,0.0,0.0,0.0,2019-03-17T21:15:58.673936,3,EyesClosed
6383.769975157974,11738.063304193414,-5919.054856187685,-6287.903343189161,35739.85823868016,-4047.1409615446287,5447.276585969518,4541.963880296216,0.0,0.0,0.0,2019-03-17T21:15:58.682400,3,EyesClosed
5841.874282583509,11194.044195895696,-6509.722055163629,-6869.942768805357,35271.90211676385,-4179.887971864698,4891.768681021772,3997.9894754874085,0.0,0.0,0.0,2019-03-17T21:15:58.683221,3,EyesClosed
6006.606639219122,11364.476247367413,-6389.603780460809,-6726.735142080205,35232.92067443379,-4744.135408894469,4985.51189726733,4048.32560400076,0.0,0.0,0.0,2019-03-17T21:15:58.690616,3,EyesClosed
6585.717986311673,11946.873300894893,-5769.007595659208,-6110.005809069373,35707.58231968669,-4678.197762751313,5555.280215177562,4602.850032192473,0.0,0.0,0.0,2019-03-17T21:15:58.691265,3,EyesClosed
6475.255665213545,11826.710322703162,-5832.374791190004,-6193.824850776774,35785.79107353581,-4124.634459571178,5511.403740811795,4601.754796714163,-0.008,1.008,0.274,2019-03-17T21:15:58.696813,3,EyesClosed
5893.126832619529,11232.600955081101,-6448.411220122722,-6812.387026832942,35329.30139652507,-4109.949363464041,4941.2777949902775,4052.5053802139023,0.0,0.0,0.0,2019-03-17T21:15:58.697509,3,EyesClosed
5927.481463847335,11263.51341766279,-6469.243045955068,-6816.767968746182,35190.16178729079,-4667.580684135042,4909.225393441367,3975.9506554544755,0.0,0.0,0.0,2019-03-17T21:15:58.704336,3,EyesClosed
6518.416883756743,11861.511988820075,-5845.852893096554,-6195.836507777752,35638.113097919595,-4748.829275230083,5480.737147419113,4520.9979439971385,0.0,0.0,0.0,2019-03-17T21:15:58.704971,3,EyesClosed
6568.864770992372,11913.077463278469,-5737.715153421778,-6110.989285825406,35841.491620718436,-4193.500184237979,5591.221820261696,4673.034509782137,0.0,0.0,0.0,2019-03-17T21:15:58.712466,3,EyesClosed
5986.154793042516,11324.220755603405,-6343.223910716047,-6719.671990832328,35431.27005473019,-4036.009792805886,5041.704182827972,4154.362279696737,0.0,0.0,0.0,2019-03-17T21:15:58.713284,3,EyesClosed
5859.196884536372,11206.114137901563,-6523.401322770277,-6880.470440443807,35182.96452557618,-4557.498342692655,4868.031128410235,3942.870073660621,0.0,0.0,0.0,2019-03-17T21:15:58.719277,3,EyesClosed
6421.0079814205155,11779.078755268903,-5944.424086144458,-6297.358131093756,35558.71970161435,-4788.011883260237,5394.995855688555,4434.586099932922,0.0,0.0,0.0,2019-03-17T21:15:58.719935,3,EyesClosed
6605.454576665709,11958.697373711751,-5713.955249065787,-6084.100137245672,35837.60241718321,-4315.5183572195,5619.027390364098,4686.870239599972,0.0,0.0,0.0,2019-03-17T21:15:58.727920,3,EyesClosed
6068.520971360323,11413.001884579884,-6265.797467922863,-6641.083257327468,35494.12316013851,-4037.1050282841957,5114.6155732411835,4224.010315419473,0.0,0.0,0.0,2019-03-17T21:15:58.728765,3,EyesClosed
5806.111491455018,11143.641012148979,-6583.8404397774275,-6942.988269685301,35160.16574623177,-4487.98441743665,4809.201337003868,3892.4668899139037,-0.01,1.002,0.28200000000000003,2019-03-17T21:15:58.734403,3,EyesClosed
6320.089855204804,11661.73209687854,-6063.558884091245,-6410.010923148504,35473.470148261804,-4823.372342988532,5288.825069525847,4324.146130579249,0.0,0.0,0.0,2019-03-17T21:15:58.742116,3,EyesClosed
6645.844178896449,11986.301778114055,-5675.197324180284,-6040.491883813368,35853.89683889113,-4414.849509578885,5657.807666994056,4711.255992800712,0.0,0.0,0.0,2019-03-17T21:15:58.742767,3,EyesClosed
6192.461394365,11525.587621401266,-6122.969820853451,-6498.836755613895,35609.256995827796,-4011.7134465829668,5250.335365573807,4354.142171638271,0.0,0.0,0.0,2019-03-17T21:15:58.750238,3,EyesClosed
5788.744186013244,11122.339799683072,-6579.638311819829,-6938.160292882954,35188.66422041228,-4376.449212604668,4816.24213650729,3910.527099433792,0.0,0.0,0.0,2019-03-17T21:15:58.751246,3,EyesClosed
6211.32626668528,11552.163845558625,-6170.93666445454,-6512.359561009355,35394.50143510121,-4818.209090019356,5185.850582820247,4228.9724026885515,0.0,0.0,0.0,2019-03-17T21:15:58.756678,3,EyesClosed
6656.260091812622,11995.264827640633,-5679.60061783798,-6032.691124998466,35824.43723969904,-4522.316696920001,5644.977765676709,4692.4581757137985,0.0,0.0,0.0,2019-03-17T21:15:58.757565,3,EyesClosed
6307.215250398547,11632.361904664267,-6010.138214843061,-6378.584370444342,35684.85059557564,-4032.612327648679,5348.39246849924,4446.186655305226,0.0,0.0,0.0,2019-03-17T21:15:58.764750,3,EyesClosed
5801.283514652671,11124.7761398287,-6560.147590654802,-6921.016504885734,35220.560159750006,-4275.575789877867,4832.6259651930295,3929.749599665356,0.0,0.0,0.0,2019-03-17T21:15:58.765461,3,EyesClosed
6094.136070506104,11417.561640448766,-6302.208459640558,-6647.185283563767,35292.21985247372,-4799.008941532247,5057.708031857972,4106.484843073469,0.0,0.0,0.0,2019-03-17T21:15:58.771767,3,EyesClosed
6609.768463345584,11945.196920060745,-5733.46832197527,-6087.832878569709,35750.117689385144,-4634.701268041285,5580.068299778498,4628.331020871523,0.0,1.002,0.28200000000000003,2019-03-17T21:15:58.772402,3,EyesClosed
6390.989588617038,11731.290725623456,-5908.258963615771,-6278.269741328924,35745.781450960814,-4083.4401945400473,5431.0045160060545,4533.447865658744,0.0,0.0,0.0,2019-03-17T21:15:58.779396,3,EyesClosed
5833.470026668314,11165.903349626464,-6513.43244474321,-6879.464611943318,35273.824366787005,-4187.867544635242,4865.259512097778,3985.6513125480787,0.0,0.0,0.0,2019-03-17T21:15:58.780317,3,EyesClosed
5991.005121589318,11313.916601409508,-6402.12075735578,-6746.359973711965,35234.77586922358,-4732.17722561088,4961.036737088769,4034.4898741829247,0.0,0.0,0.0,2019-03-17T21:15:58.787371,3,EyesClosed
6565.064974434969,11889.719890322673,-5781.032834176163,-6130.4576552459785,35704.050744062755,-4694.112204803491,5538.04702020252,4592.925857654316,0.0,0.0,0.0,2019-03-17T21:15:58.787877,3,EyesClosed
6495.551049178965,11819.177784821724,-5800.478851852281,-6172.6577487775985,35813.663698871576,-4131.787017796876,5531.1403311658305,4631.661430795363,0.0,0.0,0.0,2019-03-17T21:15:58.794589,3,EyesClosed
5884.052024370673,11202.113175644063,-6446.220749166102,-6816.477396068263,35343.85238216548,-4109.47997683048,4935.511044920808,4061.4907814849357,0.0,0.0,0.0,2019-03-17T21:15:58.795229,3,EyesClosed
5882.152126091973,11203.36487333356,-6500.580191681408,-6851.055544740623,35184.05976105449,-4658.774096819651,4876.457736069887,3962.9642919259422,0.0,0.0,0.0,2019-03-17T21:15:58.801087,3,EyesClosed
6478.116688503825,11804.358578247855,-5878.821716168131,-6231.37578146169,35624.29971984622,-4768.923493495405,5454.920882573233,4509.106815946915,0.0,0.0,0.0,2019-03-17T21:15:58.808980,3,EyesClosed
6589.741300313628,11914.060940034502,-5713.150586265396,-6086.6035326246665,35878.97549616999,-4203.714931454055,5625.598803233958,4714.564050980098,0.0,0.0,0.0,2019-03-17T21:15:58.809679,3,EyesClosed
5996.369540258592,11306.42876701698,-6326.0354192299155,-6708.786691282594,35465.512927235715,-4037.842635851221,5062.737174360415,4183.196030044082,-0.004,1.004,0.28600000000000003,2019-03-17T21:15:58.816984,3,EyesClosed
5824.328163186093,11131.481663165292,-6559.588797043419,-6920.234193829799,35175.70020862821,-4566.148467796858,4837.185721061912,3923.714628662423,0.0,0.0,0.0,2019-03-17T21:15:58.817628,3,EyesClosed
6389.201449060613,11706.860268933806,-5983.89726685253,-6330.528119865432,35549.48843115431,-4814.230479506312,5365.82682917438,4413.418997933745,0.0,0.0,0.0,2019-03-17T21:15:58.824265,3,EyesClosed
6630.64499266684,11951.276594552588,-5675.957283491764,-6039.597814035155,35892.14067365416,-4315.808929897419,5659.841675739489,4733.518330278198,0.0,0.0,0.0,2019-03-17T21:15:58.825160,3,EyesClosed
6080.255637199359,11390.896009313585,-6228.112426771215,-6599.464309151686,35549.44372766539,-4022.285821710327,5155.943948739046,4271.105440986806,0.0,0.0,0.0,2019-03-17T21:15:58.831634,3,EyesClosed
5763.263197334194,11071.243711858238,-6615.155233759312,-6966.703470552382,35160.12104274285,-4487.716196503186,4789.241229205279,3878.362939162605,0.0,0.0,0.0,2019-03-17T21:15:58.832289,3,EyesClosed
6266.065688856326,11588.284264598402,-6118.92415510704,-6454.9379295036715,35442.9153135914,-4852.384907291521,5241.908757914157,4283.801231837419,0.0,0.0,0.0,2019-03-17T21:15:58.839587,3,EyesClosed
6620.720818128684,11950.382524774377,-5696.1409087349075,-6050.371354862614,35844.26323703089,-4459.642405467321,5634.405390549349,4695.2744955151675,0.0,0.0,0.0,2019-03-17T21:15:58.840229,3,EyesClosed
6191.544972842333,11518.524470153388,-6109.201146268982,-6476.239141969579,35633.62039728408,-4024.1857199890283,5262.606473279771,4372.403546858257,0.0,0.0,0.0,2019-03-17T21:15:58.847609,3,EyesClosed
5757.764668198189,11082.732508508267,-6599.956047529704,-6956.913406480958,35190.89939485781,-4371.174200913215,4801.937020055892,3901.2734772292947,0.0,0.0,0.0,2019-03-17T21:15:58.848498,3,EyesClosed
6147.892015921118,11476.279673132858,-6232.80629310683,-6573.715099539173,35355.16236485987,-4837.386886762009,5129.434779815052,4183.441899233091,-0.008,1.006,0.28200000000000003,2019-03-17T21:15:58.854315,3,EyesClosed
6625.101760041924,11943.40878050432,-5705.863917572966,-6057.300395643759,35811.11560000367,-4553.922063579806,5623.4753875107035,4682.288131986634,0.0,0.0,0.0,2019-03-17T21:15:58.855079,3,EyesClosed
6299.280381116913,11618.861451013261,-6000.459909493913,-6367.877884850251,35702.75434288434,-4046.5821679332457,5362.183494828164,4473.4557835407,0.0,0.0,0.0,2019-03-17T21:15:58.861492,3,EyesClosed
5783.37976734397,11104.458404118825,-6560.616977288363,-6918.848385673569,35239.89441870384,-4252.374679133258,4842.013697864259,3953.1742278545175,0.0,0.0,0.0,2019-03-17T21:15:58.869134,3,EyesClosed
6045.297508871259,11366.577311346211,-6336.831311801829,-6673.113307131924,35286.29664019306,-4783.541534369175,5041.167740961045,4101.567459293301,0.0,0.0,0.0,2019-03-17T21:15:58.869990,3,EyesClosed
6596.245657950122,11922.107568038413,-5744.934766880842,-6088.324616947725,35756.21971562144,-4638.7469337876955,5587.399671959838,4643.552558845587,0.0,0.0,0.0,2019-03-17T21:15:58.876271,3,EyesClosed
6411.396731304733,11750.066190965914,-5896.300780332182,-6251.984089849483,35769.56370706126,-4084.2448573404386,5465.672071656236,4572.339901010979,0.0,0.0,0.0,2019-03-17T21:15:58.877007,3,EyesClosed
5828.396180676959,11173.055907852162,-6520.316782035445,-6869.227512982788,35294.56678564153,-4158.25148323196,4892.372178122066,4015.848519307199,0.0,0.0,0.0,2019-03-17T21:15:58.884033,3,EyesClosed
5928.934327236931,11273.526999178768,-6461.8669702848165,-6797.701930725805,35207.484389243655,-4727.952745908827,4934.348754209132,4009.2100512039724,0.0,0.0,0.0,2019-03-17T21:15:58.884730,3,EyesClosed
6522.708418692162,11871.078535446946,-5833.358267946037,-6175.876399979163,35674.81466231521,-4724.063542373603,5514.33181933544,4568.115421308926,0.0,0.0,0.0,2019-03-17T21:15:58.891732,3,EyesClosed
6472.864028556827,11831.71711346115,-5820.6401253509675,-6189.041577463338,35807.8522453132,-4171.818992116331,5535.990659712632,4631.259099395168,-0.012,1.006,0.28,2019-03-17T21:15:58.892646,3,EyesClosed
5878.799364423677,11225.180175921938,-6440.118722929803,-6813.459910566797,35364.55009753109,-4105.657828528622,4960.723812666394,4084.6471887406337,0.0,0.0,0.0,2019-03-17T21:15:58.899968,3,EyesClosed
5854.368907734026,11190.803192949676,-6524.608316970864,-6875.21778049681,35186.227880266655,-4643.664317567864,4877.038881425725,3960.5726552692245,0.0,0.0,0.0,2019-03-17T21:15:58.900625,3,EyesClosed
6449.797028278951,11792.221581008624,-5906.180251381427,-6248.988956092472,35614.1073243746,-4775.383147642988,5453.579777905915,4500.836670498451,0.0,0.0,0.0,2019-03-17T21:15:58.906520,3,EyesClosed
6576.352605384899,11919.805338359516,-5723.99118232622,-6088.8387070701965,35871.15238561063,-4236.8402167368195,5634.2712800826175,4716.016914369692,0.0,0.0,0.0,2019-03-17T21:15:58.907234,3,EyesClosed
5978.04110980524,11317.470528777902,-6332.048038488393,-6702.215278412733,35464.70826443533,-4044.481103954447,5075.544723933306,4193.611942960256,0.0,0.0,0.0,2019-03-17T21:15:58.914596,3,EyesClosed
5786.732529012266,11119.948163026353,-6589.741300313628,-6937.847368460581,35160.67983635424,-4553.027993801594,4828.267375024245,3912.002314567842,0.0,0.0,0.0,2019-03-17T21:15:58.915450,3,EyesClosed
6356.389088200222,11696.98079788456,-6018.698932969443,-6355.360907955278,35526.488486109796,-4823.327639499622,5354.9638813691,4393.704759324165,0.0,0.0,0.0,2019-03-17T21:15:58.922962,3,EyesClosed
6610.394312190332,11957.780952189083,-5698.4878419027145,-6050.594872307167,35872.873469933686,-4351.370555325813,5662.345071118483,4723.929431906871,0.0,0.0,0.0,2019-03-17T21:15:58.929474,3,EyesClosed
6101.981532809918,11441.723876204953,-6204.933667771062,-6564.975567457148,35574.924716344445,-4002.5045278673806,5204.581344673794,4307.337618748858,0.0,0.0,0.0,2019-03-17T21:15:58.930215,3,EyesClosed
5760.580987999558,11091.226171401284,-6611.3107337129995,-6959.193284415399,35171.67689462625,-4442.610376192377,4810.0283515487135,3898.546564405747,-0.006,1.004,0.28,2019-03-17T21:15:58.935973,3,EyesClosed
6232.985107062472,11570.894607412172,-6155.089277635727,-6489.627836898308,35418.7083743463,-4847.780447933727,5221.345153015274,4267.976196763062,0.0,0.0,0.0,2019-03-17T21:15:58.936636,3,EyesClosed
6610.215498234689,11960.88784466837,-5722.985353825731,-6066.710480059443,35823.90079783211,-4481.122431888871,5630.918518414321,4691.094719302025,0.0,0.0,0.0,2019-03-17T21:15:58.944166,3,EyesClosed
6189.242743163436,11540.272717508402,-6126.300230777291,-6476.462659414132,35629.08299315965,-4025.0797897672405,5276.9786449645335,4386.194573187181,0.0,0.0,0.0,2019-03-17T21:15:58.944846,3,EyesClosed
5757.675261220367,11107.431186131382,-6620.07261753948,-6953.225368645832,35200.15301706231,-4323.564985223411,4814.655162650963,3922.5746896952023,0.0,0.0,0.0,2019-03-17T21:15:58.952322,3,EyesClosed
6118.6559341735765,11476.950225466517,-6281.7789652084075,-6602.727663842162,35342.108946097964,-4816.353895229566,5112.5592127512955,4172.78011712791,0.0,0.0,0.0,2019-03-17T21:15:58.953061,3,EyesClosed
6596.02214050557,11952.505940497631,-5747.259348304195,-6086.089442502194,35790.306125915784,-4581.705281937752,5601.436567477771,4664.563198633576,0.0,0.0,0.0,2019-03-17T21:15:58.959307,3,EyesClosed
6299.347436350279,11650.064486272871,-6003.097415339639,-6360.255939990991,35715.94187211298,-4057.0874878272402,5374.096974622843,4487.850306969918,0.0,0.0,0.0,2019-03-17T21:15:58.960129,3,EyesClosed
5767.912360180898,11111.253334433239,-6589.0036927466035,-6934.9192899369355,35240.900247204336,-4247.770219775465,4829.5190727137415,3946.647518473568,0.0,0.0,0.0,2019-03-17T21:15:58.968241,3,EyesClosed
6004.28205779577,11352.227491405903,-6393.537687484943,-6721.929517022314,35259.98863696917,-4790.738796083784,4996.732472983894,4062.608368707701,0.0,0.0,0.0,2019-03-17T21:15:58.968942,3,EyesClosed
6562.673337778251,11917.2125360027,-5784.43029933337,-6123.618021442655,35735.3878897891,-4672.654530126397,5554.989642499643,4612.2154131192465,0.0,1.0,0.28600000000000003,2019-03-17T21:15:58.974882,3,EyesClosed
6399.55030674342,11761.3761736603,-5903.252172857782,-6263.539941732877,35771.709474528965,-4119.493558346458,5456.46315294065,4562.706299150741,0.0,0.0,0.0,2019-03-17T21:15:58.975750,3,EyesClosed
5805.060959465619,11170.038422350695,-6542.668526490752,-6894.730853406293,35288.95649778325,-4173.473021206024,4871.473297056353,3992.870926007143,0.0,0.0,0.0,2019-03-17T21:15:58.983537,3,EyesClosed
5890.779899451721,11258.104295504607,-6507.509232462554,-6836.929242244869,35192.933403603245,-4732.378391310977,4897.669541557973,3970.943864696487,0.0,0.0,0.0,2019-03-17T21:15:58.989374,3,EyesClosed
6505.207002783657,11883.103773963901,-5853.765410633732,-6185.442946606034,35678.05566526123,-4737.4745890467875,5503.625333741347,4552.111572278925,0.0,0.0,0.0,2019-03-17T21:15:58.990201,3,EyesClosed
6488.309083975445,11859.880311474839,-5813.487567125269,-6167.159219641593,35831.32157699127,-4188.247524290982,5555.816657044489,4642.770247789651,0.0,0.0,0.0,2019-03-17T21:15:58.996424,3,EyesClosed
5889.662312228956,11244.402676153502,-6441.459827597121,-6801.6134860054835,35384.33139137404,-4103.757930249922,4975.565370984718,4087.3070463308154,0.0,0.0,0.0,2019-03-17T21:15:58.997238,3,EyesClosed
5821.377732917993,11173.055907852162,-6567.210741902679,-6912.0311036147,35168.65940912478,-4648.514646114665,4848.629814223029,3919.691314660468,0.0,0.0,0.0,2019-03-17T21:15:59.004313,3,EyesClosed
6421.253850609523,11782.789144848484,-5945.7875425562315,-6288.417433311633,35595.8012456657,-4803.501642167765,5422.488501368583,4455.060297853983,0.0,0.0,0.0,2019-03-17T21:15:59.005167,3,EyesClosed
6564.305015123488,11925.63914366235,-5745.225339558761,-6106.630695656621,35864.357455296216,-4280.649635869221,5620.212032820229,4684.769175621173,0.0,0.0,0.0,2019-03-17T21:15:59.011664,3,EyesClosed
5998.8505838931305,11351.713401283432,-6320.447483116089,-6681.852839213949,35496.53714853968,-4032.2770514818494,5096.19773581001,4204.385483787713,0.0,1.0,0.28200000000000003,2019-03-17T21:15:59.012604,3,EyesClosed
5769.722851481778,11122.809186316632,-6607.957972044704,-6948.620909288038,35169.642885880814,-4524.03778124306,4817.985572574803,3898.1442330055515,0.0,0.0,0.0,2019-03-17T21:15:59.019152,3,EyesClosed
6326.8624337747615,11685.849629145818,-6055.713421787432,-6384.507582724998,35512.47394233631,-4819.729008642317,5319.916346063179,4358.321947851414,0.0,0.0,0.0,2019-03-17T21:15:59.020110,3,EyesClosed
6614.283515725555,11967.347498815954,-5719.498481690703,-6064.72117480292,35862.949295395534,-4382.260666163047,5634.763018460634,4700.571858951075,0.0,0.0,0.0,2019-03-17T21:15:59.027200,3,EyesClosed
6110.654009658577,11455.917233934073,-6217.964734788506,-6573.402175116798,35575.394102978,-4019.7600745868776,5182.497821151951,4298.799252366931,0.0,0.0,0.0,2019-03-17T21:15:59.027837,3,EyesClosed
5751.126200094963,11096.612941815012,-6630.68969615575,-6971.4867438658175,35180.81875810847,-4418.246974736092,4794.560944385641,3892.9362765474652,0.0,0.0,0.0,2019-03-17T21:15:59.035349,3,EyesClosed
6189.667426308087,11545.033639077383,-6201.133871213659,-6527.759912939062,35404.22444393927,-4844.67355545444,5187.750481098948,4233.487455068524,0.0,0.0,0.0,2019-03-17T21:15:59.036312,3,EyesClosed
6617.792739605038,11974.768277975116,-5715.095188033008,-6055.8475322541635,35852.13105107916,-4478.21670510968,5644.463675554237,4703.522289219176,0.0,0.0,0.0,2019-03-17T21:15:59.041503,3,EyesClosed
6225.989011047961,11577.62248249322,-6089.330445448214,-6444.365554376311,35682.302496707736,-4016.2732024518496,5308.8522325578015,4421.532681171022,0.0,0.0,0.0,2019-03-17T21:15:59.042159,3,EyesClosed
5753.339022796038,11103.966665740809,-6625.079408297469,-6963.6189298175495,35222.2141888397,-4314.0878455743605,4811.592973660586,3920.8759571165992,0.0,0.0,0.0,2019-03-17T21:15:59.048899,3,EyesClosed
6095.790099595797,11451.31277457628,-6312.087930689804,-6633.573071190485,35340.41021351936,-4810.363627715544,5091.392110752119,4148.215549971527,-0.006,0.998,0.28200000000000003,2019-03-17T21:15:59.056768,3,EyesClosed
6602.459442908698,11957.356269044432,-5749.427467516359,-6082.401404667068,35806.95817553499,-4588.656674463353,5612.411274005327,4667.267759712668,0.0,0.0,0.0,2019-03-17T21:15:59.057713,3,EyesClosed
6326.102474463281,11678.518256964477,-5986.892400609541,-6339.535872880921,35749.894171940585,-4062.9436448745305,5405.031788948988,4510.582031080965,0.0,0.0,0.0,2019-03-17T21:15:59.064705,3,EyesClosed
5793.19218315985,11143.05986679314,-6566.182561657734,-6915.003885627257,35287.727151838204,-4203.759634942965,4867.427631309943,3980.868039234643,0.0,0.0,0.0,2019-03-17T21:15:59.065375,3,EyesClosed
5989.4628512219015,11344.024401190807,-6411.284972582456,-6745.868235333948,35272.75148305315,-4765.548380082653,4998.408853818042,4057.9145023720866,0.0,0.0,0.0,2019-03-17T21:15:59.071260,3,EyesClosed
6555.654890019285,11914.910306323804,-5801.350569886037,-6145.902710664596,35736.63958747859,-4692.59228618053,5557.604796600914,4600.257229835657,0.0,0.0,0.0,2019-03-17T21:15:59.072226,3,EyesClosed
6428.048780923937,11784.040842537981,-5881.526277247224,-6245.859711868729,35801.3031841878,-4131.630555585689,5494.37171153685,4585.058043606048,0.0,0.0,0.0,2019-03-17T21:15:59.079052,3,EyesClosed
5843.885939584487,11185.349367302582,-6504.447043472176,-6866.478248414785,35337.70565244027,-4145.510988892435,4918.568422623685,4027.3149642127714,0.0,0.0,0.0,2019-03-17T21:15:59.079518,3,EyesClosed
5888.075338372629,11229.114082946073,-6516.695799433684,-6855.92822503188,35203.282261286055,-4715.12284459148,4898.630666569551,3959.87975119111,0.0,0.0,0.0,2019-03-17T21:15:59.087049,3,EyesClosed
6479.033110026492,11827.649095970286,-5894.3114750756595,-6230.638173894665,35647.165554424,-4779.205295944846,5470.477696714127,4504.949391478228,0.0,0.0,0.0,2019-03-17T21:15:59.087363,3,EyesClosed
6509.900869119271,11861.10965741988,-5801.9764187307865,-6158.732611981942,35839.256446272906,-4216.589536260311,5560.868151291389,4640.982108233226,-0.004,1.002,0.28800000000000003,2019-03-17T21:15:59.096000,3,EyesClosed
5915.769149752754,11270.330699721659,-6411.732007471563,-6771.460982735274,35416.495551645225,-4079.1486596046284,5000.50991779684,4111.961020465019,0.0,0.0,0.0,2019-03-17T21:15:59.096894,3,EyesClosed
5814.515747370213,11173.21237006335,-6573.826858261449,-6916.322638550119,35174.694380127716,-4610.673142751831,4838.929157129426,3912.1811285234844,0.0,0.0,0.0,2019-03-17T21:15:59.102507,3,EyesClosed
6388.016806604482,11759.94566201516,-5991.072176822684,-6324.493148862499,35559.72553011483,-4820.354857487066,5370.1854193431645,4411.809672332964,0.0,0.0,0.0,2019-03-17T21:15:59.103145,3,EyesClosed
6583.0804804659465,11954.294080054055,-5741.649060445912,-6092.325579205225,35867.64316173115,-4299.179232022671,5612.0312943495865,4690.446518712821,0.0,0.0,0.0,2019-03-17T21:15:59.109101,3,EyesClosed
6050.527817073801,11413.784195635819,-6285.24348559898,-6639.965670104703,35534.04337573569,-4004.784405801822,5124.562099523795,4245.579748818845,0.0,0.0,0.0,2019-03-17T21:15:59.116768,3,EyesClosed
5767.33121482506,11124.709084595333,-6626.331105986966,-6964.512999595761,35170.76047310358,-4498.869716986384,4800.126528755013,3894.5679538927025,0.0,0.0,0.0,2019-03-17T21:15:59.117617,3,EyesClosed
6280.504915774455,11649.371582194755,-6112.889184104108,-6438.1517694177355,35473.51485175072,-4837.543348973197,5269.267293127453,4322.402694511735,0.0,0.0,0.0,2019-03-17T21:15:59.124675,3,EyesClosed
6600.246620207623,11970.387336061876,-5734.384743497938,-6080.210933710448,35850.655835945116,-4408.479262409122,5625.576451489503,4702.717626418785,0.0,0.0,0.0,2019-03-17T21:15:59.125144,3,EyesClosed
6138.5489867388,11500.218391444492,-6189.84624026373,-6549.10582889388,35602.886748658035,-4006.1702139580507,5215.533699456894,4339.434723786679,0.0,0.0,0.0,2019-03-17T21:15:59.131845,3,EyesClosed
5749.941557638831,11103.005540729231,-6643.117266072902,-6986.373005673052,35184.618554665874,-4393.615352346344,4792.348121684566,3897.3842736940715,-0.004,1.006,0.292,2019-03-17T21:15:59.132773,3,EyesClosed
6156.005699158394,11509.22614445998,-6252.408772994134,-6581.82878277645,35369.13220514443,-4859.313948072666,5141.638832287649,4198.730492440521,0.0,0.0,0.0,2019-03-17T21:15:59.139674,3,EyesClosed
6608.539117400542,11963.972385403204,-5740.017383100675,-6083.295474445281,35825.77834436636,-4524.775388810085,5620.59201247597,4685.21621051028,0.0,0.0,0.0,2019-03-17T21:15:59.140521,3,EyesClosed
6252.542883460866,11605.115128173247,-6073.728927818409,-6429.568699546898,35690.57264215621,-4027.247908979405,5324.811378098891,4438.54235870151,0.0,0.0,0.0,2019-03-17T21:15:59.146867,3,EyesClosed
5762.190313600339,11118.048264747653,-6616.1834140042565,-6961.495514094296,35228.58443600946,-4287.757490606009,4816.979744074314,3929.0343438427863,0.0,0.0,0.0,2019-03-17T21:15:59.147510,3,EyesClosed
6072.030195239806,11444.36138205068,-6338.887672291717,-6665.379603550387,35317.454971963765,-4804.306304968155,5062.066622026757,4123.628631070689,0.0,0.0,0.0,2019-03-17T21:15:59.155758,3,EyesClosed
6625.191167019745,12001.255095154655,-5739.413886000381,-6073.594817351677,35811.87555931516,-4589.953075641761,5617.976858374698,4677.1919342508245,0.0,0.0,0.0,2019-03-17T21:15:59.156677,3,EyesClosed
6378.562018699887,11751.496702611053,-5942.300670421204,-6292.664264758142,35785.61225958017,-4053.0865255697404,5438.849978309868,4549.071735033004,0.0,0.0,0.0,2019-03-17T21:15:59.162214,3,EyesClosed
5796.723758783789,11168.138524071996,-6570.675262293251,-6914.109815849044,35288.017724516125,-4200.473928508035,4854.86595092606,3973.938998453498,0.0,0.0,0.0,2019-03-17T21:15:59.162857,3,EyesClosed
5976.409432460003,11348.427694848502,-6441.929214230682,-6769.203456545289,35260.03334045808,-4755.423039844399,4966.468210991408,4034.1769497605505,0.0,0.0,0.0,2019-03-17T21:15:59.169430,3,EyesClosed
6578.096041452413,11949.734324185172,-5801.372921630493,-6135.777370426342,35749.26832309584,-4685.842059355028,5556.151933211319,4607.05216015007,-0.004,1.006,0.292,2019-03-17T21:15:59.176510,3,EyesClosed
6452.635699824775,11824.653962213275,-5872.652634698467,-6228.112426771215,35815.6530041281,-4147.902625549153,5503.08889187442,4598.0667588790375,0.0,0.0,0.0,2019-03-17T21:15:59.177238,3,EyesClosed
