eeg1,eeg2,eeg3,eeg4,eeg5,eeg6,eeg7,eeg8,accx,accy,accz,iso_utc,session_id,command_name
0.0,0.0,0.0,0.0,0.0,0.0,0.0,0.0,0.0,0.0,0.0,2019-03-17T21:16:57.167140,5,EyesClosed
2042.3012426258617,5491.220115568652,-5255.163342376154,-6454.334432403378,29841.121118202343,-4363.887532220785,5663.775582763623,5139.515416564395,-0.006,1.012,0.254,2019-03-17T21:16:57.183019,5,EyesClosed
1600.6754756779046,5035.110418213656,-5673.677405557323,-6862.052603012634,29574.621269061718,-3928.1849775534843,5277.984473465022,4829.474369224831,0.0,0.0,0.0,2019-03-17T21:16:57.189115,5,EyesClosed
1336.9919463386473,4766.263635905223,-5995.207249546916,-7181.056699878776,29266.6589339565,-4241.288213883426,4981.734452454383,4502.803624010518,0.0,0.0,0.0,2019-03-17T21:16:57.189623,5,EyesClosed
1740.9550238794118,5180.30735019533,-5628.6386404798795,-6825.1498729169225,29486.68950637454,-4730.232623843268,5319.759883851992,4761.949749225349,0.0,0.0,0.0,2019-03-17T21:16:57.195577,5,EyesClosed
2067.446955138082,5513.482453046138,-5240.254728824464,-6448.746496289551,29845.05502522648,-4462.838704924429,5668.64826305488,5132.228747871965,0.0,0.0,0.0,2019-03-17T21:16:57.196033,5,EyesClosed
1722.850110870613,5160.101373207734,-5539.4775318476595,-6742.157845754367,29687.385819838742,-3930.9565938659425,5392.11248065382,4933.946422808936,0.0,0.0,0.0,2019-03-17T21:16:57.201845,5,EyesClosed
1341.2387777851557,4765.70484229384,-5971.067365535184,-7170.685490451514,29307.674385031987,-4140.414791156625,4998.855888707148,4522.60726959792,0.0,0.0,0.0,2019-03-17T21:16:57.209586,5,EyesClosed
1642.406182575963,5068.548627918795,-5715.922202577854,-6924.436321787396,29422.271778854345,-4692.614637924986,5233.07981885431,4676.566085406075,-0.002,1.006,0.276,2019-03-17T21:16:57.210361,5,EyesClosed
2043.8435129932777,5478.591379951404,-5271.61422629526,-6481.849429827861,29805.626548007316,-4568.227180031202,5646.900015699865,5090.140413062622,0.0,0.0,0.0,2019-03-17T21:16:57.217070,5,EyesClosed
1778.9529894534337,5211.890365110679,-5484.983978865621,-6682.858667714438,29725.070860990392,-4011.5346326273243,5454.406792450762,4978.381690786086,0.0,0.0,0.0,2019-03-17T21:16:57.217742,5,EyesClosed
1348.1678185663009,4777.372452899511,-5945.206397200393,-7138.588385413693,29343.99596977186,-4050.2702057683714,5026.70616229846,4562.080450305993,0.0,0.0,0.0,2019-03-17T21:16:57.225407,5,EyesClosed
1559.6600246024161,4990.27281883631,-5782.262180121205,-6987.155316728988,29386.307822025756,-4604.414654304344,5176.59696061575,4632.309631384567,0.0,0.0,0.0,2019-03-17T21:16:57.226371,5,EyesClosed
2026.967945929521,5460.754687876069,-5277.0904036868105,-6502.010703326548,29782.492492496076,-4627.079323182025,5628.25866082414,5068.839200596714,0.0,0.0,0.0,2019-03-17T21:16:57.233725,5,EyesClosed
1871.0421766092988,5296.37995915174,-5365.6703669631925,-6603.174698731268,29779.072675594412,-4083.9766364069746,5529.32983986495,5051.583653877217,0.0,0.0,0.0,2019-03-17T21:16:57.234184,5,EyesClosed
1394.9500197112584,4817.091502796591,-5861.208541537349,-7096.544754093261,29389.213548804946,-3981.315074123749,5071.029671553334,4623.43598883581,0.0,0.0,0.0,2019-03-17T21:16:57.240304,5,EyesClosed
1463.1675437888557,4890.516983332274,-5850.703221643355,-7092.610847069126,29314.33520487967,-4530.89976679084,5082.607875181184,4565.4779154632,0.0,0.0,0.0,2019-03-17T21:16:57.240993,5,EyesClosed
1949.295633947329,5381.651864248737,-5340.882282362257,-6600.671303352274,29689.106904161803,-4704.8410421420385,5544.95370923921,4989.266990335821,0.0,0.0,0.0,2019-03-17T21:16:57.247820,5,EyesClosed
1955.3753084391724,5382.791803215958,-5266.562732048361,-6528.318706550444,29832.04630995349,-4161.827762344809,5610.600782704447,5124.96443092399,-0.004,1.006,0.28,2019-03-17T21:16:57.248279,5,EyesClosed
1473.0023113491907,4894.16031767849,-5748.779266927156,-7001.058101780189,29482.46502667249,-3911.197651767451,5162.0459749753445,4728.578594753575,0.0,0.0,0.0,2019-03-17T21:16:57.255762,5,EyesClosed
1412.2279181752108,4829.474369224831,-5870.082184086106,-7126.853719574657,29303.22638788538,-4417.01762879105,5043.134694473111,4549.988156555672,0.0,0.0,0.0,2019-03-17T21:16:57.256242,5,EyesClosed
1894.5338600318266,5316.228308228053,-5389.139698641265,-6660.641033725862,29641.698854172097,-4732.512501777709,5480.848906141389,4927.732637850361,0.0,0.0,0.0,2019-03-17T21:16:57.261979,5,EyesClosed
2022.676410994102,5442.672126611725,-5200.334513227286,-6466.270263942512,29872.659429628784,-4261.874170526764,5657.74061176069,5154.669899305093,0.0,0.0,0.0,2019-03-17T21:16:57.262510,5,EyesClosed
1548.2606349302096,4960.209722543922,-5667.821248510033,-6918.334295551097,29558.103329909245,-3902.435767940971,5231.55990023135,4790.448223405865,0.0,0.0,0.0,2019-03-17T21:16:57.269518,5,EyesClosed
1374.7663944681162,4787.631903604496,-5908.236611871316,-7154.927510610522,29305.170989652994,-4312.411464740213,5015.083255181701,4523.143711464848,0.0,0.0,0.0,2019-03-17T21:16:57.277365,5,EyesClosed
1808.8596235346347,5235.292641555387,-5488.135574833819,-6750.1374185249115,29572.65431554965,-4748.002260685237,5397.16397490072,4832.916537870949,0.0,0.0,0.0,2019-03-17T21:16:57.278132,5,EyesClosed
2031.3935913316718,5464.84505711139,-5194.254838735443,-6460.503513873043,29866.75856909258,-4391.938971512195,5659.148771661374,5135.49210256244,0.0,0.0,0.0,2019-03-17T21:16:57.285485,5,EyesClosed
1616.7240281968152,5039.625470593628,-5580.671796878791,-6833.531777087663,29633.54046744591,-3923.334649006683,5310.7297790920475,4858.844561439105,0.0,0.0,0.0,2019-03-17T21:16:57.286127,5,EyesClosed
1342.9151586193036,4763.112039937025,-5911.410559583969,-7157.475609478428,29326.293388163256,-4203.111434353761,5014.859737737148,4529.6257173568865,-0.01,1.008,0.28200000000000003,2019-03-17T21:16:57.293470,5,EyesClosed
1723.3418492486298,5143.1140474217,-5571.641692118847,-6829.933146230358,29517.51256197841,-4723.12476910648,5324.409046698695,4760.496885835753,0.0,0.0,0.0,2019-03-17T21:16:57.294528,5,EyesClosed
2050.9513677300656,5473.025795582032,-5183.771870585903,-6452.479237613587,29863.606973124384,-4497.528612319066,5676.69489105879,5132.1616926386,0.0,0.0,0.0,2019-03-17T21:16:57.299953,5,EyesClosed
1710.0202095532668,5129.7030007485155,-5481.98884510861,-6742.2696044766435,29704.97664272507,-3967.6581582615568,5401.321399369407,4939.042620544747,0.0,0.0,0.0,2019-03-17T21:16:57.300535,5,EyesClosed
1319.7363996191502,4739.5309495366755,-5917.043199186707,-7175.602874231681,29326.069870718704,-4134.268061431416,4999.772310229816,4527.010563255616,0.0,0.0,0.0,2019-03-17T21:16:57.308028,5,EyesClosed
1611.247850805265,5032.539967601296,-5675.756117791667,-6939.702563250371,29435.705177271986,-4683.562181420587,5223.89325188318,4669.97232079176,0.0,0.0,0.0,2019-03-17T21:16:57.308434,5,EyesClosed
2035.3051466113504,5458.7653826195465,-5212.605620933249,-6476.574418136409,29831.37575761983,-4578.307816780546,5654.857236725955,5099.572849222762,0.0,0.0,0.0,2019-03-17T21:16:57.315317,5,EyesClosed
1795.5826873281824,5212.560917444339,-5402.081358680887,-6653.130847588879,29768.232079533587,-4017.8825280526316,5481.340644519406,5011.171699902022,0.0,0.0,0.0,2019-03-17T21:16:57.315827,5,EyesClosed
1363.0093768846248,4781.216952945823,-5869.3669282635365,-7108.279419932297,29390.264080794346,-4017.189623974517,5047.42622940853,4596.14450885588,0.0,0.0,0.0,2019-03-17T21:16:57.322856,5,EyesClosed
1548.5512076081286,4974.358376784132,-5741.537301723636,-6981.0979939816,29406.133819357616,-4570.082374820992,5168.215056445009,4637.942270987305,0.0,0.0,0.0,2019-03-17T21:16:57.323603,5,EyesClosed
2013.5121957674262,5444.281452212507,-5241.685240469604,-6487.772642108517,29802.65376599476,-4626.252308637179,5628.929213157799,5071.856686098181,-0.012,1.006,0.28200000000000003,2019-03-17T21:16:57.329722,5,EyesClosed
1891.359912319173,5316.608287883793,-5299.665665586671,-6538.756971211073,29847.692531072204,-4068.5986362217236,5579.464802678204,5095.169555565066,0.0,0.0,0.0,2019-03-17T21:16:57.337788,5,EyesClosed
1396.157013911845,4811.302400982667,-5812.10175896904,-7043.414657522996,29450.524383845855,-3948.681527219001,5110.480500516952,4654.840189795517,0.0,0.0,0.0,2019-03-17T21:16:57.338487,5,EyesClosed
1452.1481337723892,4868.38875632152,-5821.265974195716,-7059.664375742004,29355.44006293298,-4487.157402891803,5099.0587591002895,4571.602293443953,0.0,0.0,0.0,2019-03-17T21:16:57.344188,5,EyesClosed
1951.4861049039491,5376.77918395748,-5313.881375060246,-6567.814239002972,29737.677244863185,-4681.371710463966,5566.903122294321,4994.8102229607375,0.0,0.0,0.0,2019-03-17T21:16:57.345104,5,EyesClosed
1963.8466195877338,5385.585771272871,-5238.958327646056,-6493.226467755612,29884.68466814574,-4164.912303079642,5639.613347007436,5129.591242026239,0.0,0.0,0.0,2019-03-17T21:16:57.353718,5,EyesClosed
1480.8254219085482,4889.019416453769,-5726.494577705214,-6967.28461590822,29541.495983778954,-3888.19770672294,5196.311199225331,4738.480417547276,0.0,0.0,0.0,2019-03-17T21:16:57.354385,5,EyesClosed
1392.960714454736,4797.7572438427505,-5876.318320789137,-7122.651591617059,29344.733577338884,-4377.835020760896,5059.250302225388,4540.488665162166,0.0,0.0,0.0,2019-03-17T21:16:57.360365,5,EyesClosed
1876.8536301676788,5292.557810849883,-5396.560477800426,-6656.662423212818,29682.535491291943,-4707.590306710042,5504.474700030649,4921.429445913965,0.0,0.0,0.0,2019-03-17T21:16:57.361126,5,EyesClosed
2010.6958759660574,5425.640097336781,-5201.519155683417,-6461.062307484425,29910.16565682479,-4276.17928697816,5682.662806828357,5149.797219013836,0.0,0.0,0.0,2019-03-17T21:16:57.367470,5,EyesClosed
1546.248977929232,4956.454629475431,-5655.907768715354,-6898.418891241418,29605.466676410044,-3892.399834680538,5264.439316325106,4798.539554898686,-0.016,1.006,0.28,2019-03-17T21:16:57.368040,5,EyesClosed
1361.9141414063147,4764.520199837709,-5910.494138061302,-7153.027612331822,29330.56257135422,-4279.777917835465,5019.173624417022,4514.292420660547,0.0,0.0,0.0,2019-03-17T21:16:57.374892,5,EyesClosed
1799.7624635413247,5208.358789486741,-5494.014083625565,-6742.00138354318,29596.682440839108,-4722.476568517276,5404.383588359784,4826.970973845837,0.0,0.0,0.0,2019-03-17T21:16:57.375648,5,EyesClosed
2027.5043877964483,5444.192045234686,-5195.752405613948,-6444.678478798685,29891.34548799342,-4403.673637351231,5676.292559658595,5131.513492049396,0.0,0.0,0.0,2019-03-17T21:16:57.383148,5,EyesClosed
1625.2847463231979,5040.676002583027,-5568.57950312847,-6804.787433718137,29659.602601480798,-3920.5406809497695,5329.415837456684,4863.829000452638,0.0,0.0,0.0,2019-03-17T21:16:57.383857,5,EyesClosed
1329.9958503241362,4733.987716911759,-5933.136455194528,-7159.621376946137,29321.71128054992,-4182.257256776959,4994.363188071631,4508.615077568898,0.0,0.0,0.0,2019-03-17T21:16:57.390312,5,EyesClosed
1686.3497121750966,5090.632151440639,-5609.080864081486,-6843.120675458989,29497.485398946454,-4701.957667107305,5290.032063726433,4725.248184829734,0.0,0.0,0.0,2019-03-17T21:16:57.396945,5,EyesClosed
2042.033021692398,5445.0861150128985,-5202.301466739353,-6442.644470053252,29857.32613293244,-4501.3284088764685,5663.105030429963,5110.458148772496,0.0,0.0,0.0,2019-03-17T21:16:57.397533,5,EyesClosed
1726.1805207944537,5129.255965859409,-5478.390214251306,-6710.239554672188,29721.673395833182,-3961.399669814071,5415.939440243178,4941.143684523545,0.0,0.0,0.0,2019-03-17T21:16:57.404412,5,EyesClosed
1341.775219652083,4744.895368205949,-5905.241478114304,-7133.134559766599,29359.373969957112,-4080.3333020607597,5026.415589620542,4547.931796065784,0.0,0.0,0.0,2019-03-17T21:16:57.404822,5,EyesClosed
1603.5364989681839,5014.479758081407,-5687.267266186151,-6926.93971716639,29449.898535001106,-4641.58560533352,5228.944746130079,4669.25706496919,-0.018000000000000002,1.008,0.28200000000000003,2019-03-17T21:16:57.412583,5,EyesClosed
2039.8201989913225,5447.477751669616,-5212.247993021964,-6464.727993575096,29846.48553687162,-4582.2193720602245,5664.222617652728,5097.203564310499,0.0,0.0,0.0,2019-03-17T21:16:57.413080,5,EyesClosed
1826.9868882878886,5233.236281065498,-5365.245683818542,-6614.708198870207,29810.94626318768,-4012.0710744942517,5526.37940959685,5034.573976346729,0.0,0.0,0.0,2019-03-17T21:16:57.420754,5,EyesClosed
1377.1356793803786,4777.864191277527,-5843.818884351121,-7085.905323732534,29424.551656788786,-3983.997283458386,5087.77112815036,4608.728540984219,0.0,0.0,0.0,2019-03-17T21:16:57.421756,5,EyesClosed
1526.1994631528216,4931.599489641129,-5755.641252474935,-7003.136814014532,29406.357336802168,-4548.1776652547915,5169.489105878962,4615.9705061877385,0.0,0.0,0.0,2019-03-17T21:16:57.427317,5,EyesClosed
2009.1089021097307,5419.225146678108,-5252.838760952802,-6507.688046418196,29801.37971656081,-4632.086113940014,5630.247966080662,5051.851874810681,0.0,0.0,0.0,2019-03-17T21:16:57.427958,5,EyesClosed
1911.163557906575,5319.514014662983,-5288.735662548025,-6538.041715388503,29862.28822020152,-4083.9766364069746,5598.150861042841,5091.77209040786,0.0,0.0,0.0,2019-03-17T21:16:57.435551,5,EyesClosed
1426.0859997375012,4825.898090111982,-5790.822898247588,-7030.428293994462,29482.01799178338,-3921.971192594909,5136.296765362831,4665.390213178422,0.0,0.0,0.0,2019-03-17T21:16:57.436192,5,EyesClosed
1458.9207123423473,4857.838732938616,-5824.216404463817,-7069.230922368875,29367.800577616763,-4452.489847241623,5100.958657378991,4557.587749670476,0.0,0.0,0.0,2019-03-17T21:16:57.443506,5,EyesClosed
1947.485142646449,5356.327337780874,-5323.425569942662,-6583.1922391882235,29732.60339887183,-4691.45234721331,5554.542607610537,4961.103792322135,0.0,0.0,0.0,2019-03-17T21:16:57.444222,5,EyesClosed
1998.0447886043537,5407.35637037234,-5208.157623786643,-6462.693984829662,29910.500932991617,-4180.692634665088,5664.088507185997,5129.546538537328,-0.014,1.002,0.28200000000000003,2019-03-17T21:16:57.449454,5,EyesClosed
1499.7797012066485,4899.68119855895,-5714.312876977072,-6951.392525600497,29549.073225149303,-3899.194764994951,5204.335475484786,4723.191824339846,0.0,0.0,0.0,2019-03-17T21:16:57.456925,5,EyesClosed
1382.7012637497503,4780.479345378798,-5904.034483913718,-7139.974193569922,29320.884266005072,-4378.81849751693,5033.344630401687,4493.505298317111,0.0,0.0,0.0,2019-03-17T21:16:57.457608,5,EyesClosed
1878.2170865794524,5280.107889188277,-5421.616783334825,-6668.84412394096,29656.87568865725,-4715.413417269399,5478.926656118233,4875.273093613755,0.0,0.0,0.0,2019-03-17T21:16:57.466387,5,EyesClosed
2044.6034723047583,5445.376687690818,-5187.392853187663,-6439.537577573965,29912.333776036954,-4288.360987706303,5690.731786576723,5135.402695584619,0.0,0.0,0.0,2019-03-17T21:16:57.467150,5,EyesClosed
1584.7386818812708,4983.477888521897,-5620.0108671201315,-6865.271254214198,29625.315025486354,-3879.8381542966554,5290.3002846598965,4803.94867705687,0.0,0.0,0.0,2019-03-17T21:16:57.474596,5,EyesClosed
1368.12792636489,4768.990548728771,-5899.720597233844,-7140.957670325955,29344.08537674968,-4236.8402167368195,5036.049191480779,4510.1349961918595,0.0,0.0,0.0,2019-03-17T21:16:57.475298,5,EyesClosed
1790.4864895923722,5203.17318477311,-5499.669074972758,-6751.009136558669,29592.681478581606,-4693.464004214287,5404.45064359315,4804.932153812904,0.0,0.0,0.0,2019-03-17T21:16:57.480862,5,EyesClosed
2068.229266194018,5475.529190961027,-5162.604768586728,-6415.710617984608,29915.53007549406,-4381.567762084933,5707.048560029097,5144.119875922189,0.0,0.0,0.0,2019-03-17T21:16:57.481531,5,EyesClosed
1672.469278868351,5071.8790378426365,-5529.128674164853,-6769.359918756476,29696.795904254428,-3894.1656224925073,5367.257340819519,4887.678311786451,0.0,0.0,0.0,2019-03-17T21:16:57.487695,5,EyesClosed
1338.9588998507143,4738.189844869357,-5918.272545131748,-7154.301661765774,29343.794804071764,-4140.481846389991,5006.969571944424,4510.291458403046,-0.014,1.002,0.28600000000000003,2019-03-17T21:16:57.488344,5,EyesClosed
1689.0319215097336,5094.476651486952,-5607.248021036151,-6846.652251082927,29516.88671313366,-4663.289149199623,5304.448938900106,4721.761312694706,0.0,0.0,0.0,2019-03-17T21:16:57.495751,5,EyesClosed
2065.3682429037385,5468.957778091166,-5183.794222330359,-6427.154711145725,29890.38436298184,-4485.905705202306,5697.303199446583,5121.097579133222,0.0,0.0,0.0,2019-03-17T21:16:57.496397,5,EyesClosed
1769.5652567822049,5167.6786145780825,-5432.0550479954545,-6666.385432050876,29781.151387828755,-3933.974079367409,5468.8907228578,4974.98422562888,0.0,0.0,0.0,2019-03-17T21:16:57.502867,5,EyesClosed
1357.9578826377253,4749.410420585921,-5888.701187217377,-7111.565126367227,29405.709136212965,-4030.488911925425,5056.299871957287,4564.382679984889,0.0,0.0,0.0,2019-03-17T21:16:57.503539,5,EyesClosed
1598.6861704213823,5001.716911997427,-5691.581152866024,-6928.057304389156,29474.105474246204,-4587.874363407417,5244.568615504339,4667.848905068506,0.0,0.0,0.0,2019-03-17T21:16:57.509529,5,EyesClosed
2031.0583151648423,5433.999649763066,-5225.971964117523,-6473.825153568406,29855.605048609385,-4569.769450398619,5675.286731158106,5086.497078716407,0.0,0.0,0.0,2019-03-17T21:16:57.510498,5,EyesClosed
1865.8342201512123,5263.500543057984,-5335.9648985820895,-6579.660663564285,29862.48938590162,-3979.996321200886,5574.882695064866,5069.196828507999,0.0,0.0,0.0,2019-03-17T21:16:57.517336,5,EyesClosed
1391.5078510651413,4790.314112939133,-5827.591517876568,-7066.883989201068,29472.96553527898,-3929.5931374541688,5121.075227388767,4635.662393052864,0.0,0.0,0.0,2019-03-17T21:16:57.525194,5,EyesClosed
1509.2791926001541,4915.819158055682,-5766.61595900249,-7010.490537940328,29432.531229559332,-4496.947466963228,5179.972074028501,4613.489462553199,0.0,0.0,0.0,2019-03-17T21:16:57.525899,5,EyesClosed
1987.517116965904,5402.818966247913,-5266.808601237369,-6518.640401201296,29820.15518190327,-4620.530262056621,5642.004983664154,5039.334897915709,-0.012,0.998,0.29,2019-03-17T21:16:57.532447,5,EyesClosed
1928.419104626072,5341.977517840567,-5267.523857059939,-6513.007761598559,29908.846903901926,-4069.202133322017,5642.474370297715,5111.262811572888,0.0,0.0,0.0,2019-03-17T21:16:57.533397,5,EyesClosed
1447.2083982477664,4856.654090482484,-5765.453668290815,-7001.438081435929,29536.89152442116,-3871.4115466370044,5184.6435886196605,4691.206478024302,0.0,0.0,0.0,2019-03-17T21:16:57.540558,5,EyesClosed
1438.222996976733,4846.461695010865,-5842.522483172713,-7082.910189975523,29390.174673816524,-4403.0701402509385,5116.381361053152,4548.691755377264,0.0,0.0,0.0,2019-03-17T21:16:57.541434,5,EyesClosed
1920.6406975556254,5324.0514187874105,-5358.875436648779,-6605.096948754424,29735.866753562303,-4672.16279174838,5564.2432647041405,4939.914338578504,0.0,0.0,0.0,2019-03-17T21:16:57.547934,5,EyesClosed
1984.0302448308762,5385.049329405943,-5227.648344951671,-6469.198342466158,29920.894494163334,-4180.938503854097,5682.707510317267,5116.9625064089905,0.0,0.0,0.0,2019-03-17T21:16:57.548597,5,EyesClosed
1507.8263292105592,4906.073797473168,-5693.771623822645,-6922.603478742061,29593.95552801556,-3851.585549305147,5246.535569016406,4741.944937937848,0.0,0.0,0.0,2019-03-17T21:16:57.555847,5,EyesClosed
1380.5331445375855,4777.3277494106,-5883.895562159487,-7113.7108938349365,29368.71699913943,-4294.999455809529,5069.554456419284,4510.760845036608,0.0,0.0,0.0,2019-03-17T21:16:57.556731,5,EyesClosed
1853.1607810450532,5253.978699920023,-5422.779074046502,-6665.513714017119,29676.2546511,-4674.576780149553,5490.527211490537,4865.661843497974,0.0,0.0,0.0,2019-03-17T21:16:57.562678,5,EyesClosed
2045.6316525497023,5446.740144102591,-5167.656262833627,-6409.809757448406,29951.40462534483,-4270.948978775618,5724.594679426513,5143.784599755359,0.0,0.0,0.0,2019-03-17T21:16:57.563332,5,EyesClosed
1601.5695454561169,4998.65472300705,-5591.646503406347,-6817.773797246671,29681.35084883581,-3839.850883466111,5338.244776516531,4829.608479691563,-0.012,1.0,0.28400000000000003,2019-03-17T21:16:57.570650,5,EyesClosed
1350.2018273117337,4745.230644372778,-5903.45333855788,-7125.311449207241,29378.283545766302,-4180.200896287071,5056.322223701743,4512.101949703926,0.0,0.0,0.0,2019-03-17T21:16:57.571318,5,EyesClosed
1762.7926782122468,5162.202437186532,-5523.943069451221,-6755.278319749632,29611.05461252387,-4657.20947470778,5409.949172729155,4787.855421049049,0.0,0.0,0.0,2019-03-17T21:16:57.577743,5,EyesClosed
2059.8473620232776,5462.542827432493,-5163.6329488316715,-6404.445338779133,29946.442538075753,-4370.637759046288,5741.604356957002,5140.990631698445,0.0,0.0,0.0,2019-03-17T21:16:57.584513,5,EyesClosed
1685.8803255415353,5080.082128057734,-5498.9761708946435,-6732.5242438941295,29755.290419493966,-3858.6934040419346,5435.6983823416695,4913.44987314342,0.0,0.0,0.0,2019-03-17T21:16:57.585247,5,EyesClosed
1337.9530713502254,4731.685487232863,-5894.713806475855,-7122.808053828247,29405.463267023955,-4059.8814558841536,5074.471840199451,4542.455618674233,0.0,0.0,0.0,2019-03-17T21:16:57.591958,5,EyesClosed
1649.692851268393,5050.153142232078,-5625.1741200893075,-6861.203236723332,29539.193754100055,-4606.269849094135,5329.460540945594,4718.877937659971,0.0,0.0,0.0,2019-03-17T21:16:57.592865,5,EyesClosed
2059.579141089814,5461.916978587745,-5173.870047792202,-6421.253850609523,29931.53392452406,-4450.388783262823,5745.024173858664,5139.761285753404,0.0,0.0,0.0,2019-03-17T21:16:57.600325,5,EyesClosed
1785.814975001213,5183.816574074814,-5403.668332537214,-6643.1843213062675,29838.260094912064,-3893.048035269742,5538.158778924797,5015.597345304173,0.0,0.0,0.0,2019-03-17T21:16:57.601047,5,EyesClosed
1356.1026878479347,4752.338499109566,-5879.335806290604,-7108.659399588037,29448.289209400322,-3964.394803571082,5107.463015015485,4591.00360763116,0.0,0.0,0.0,2019-03-17T21:16:57.608224,5,EyesClosed
1575.9991497992457,4981.868562921115,-5711.2283362422395,-6950.967842455846,29494.423209956076,-4530.408028412822,5261.332423845819,4663.914998044372,-0.006,1.002,0.28400000000000003,2019-03-17T21:16:57.609131,5,EyesClosed
2042.7482775149679,5443.45443766766,-5208.425844720107,-6465.934987775682,29901.58258695395,-4521.422627141789,5721.063103802575,5103.43970101353,0.0,0.0,0.0,2019-03-17T21:16:57.614996,5,EyesClosed
1867.3541387741732,5255.520970287439,-5321.346857708319,-6576.509067596086,29898.43099098575,-3962.2266843589173,5615.16053857333,5074.7624128773705,0.0,0.0,0.0,2019-03-17T21:16:57.615775,5,EyesClosed
1381.5836765269848,4767.336519639078,-5820.8189393066095,-7065.252311855831,29503.207445527012,-3885.783718321767,5151.607710314716,4635.930613986327,0.0,0.0,0.0,2019-03-17T21:16:57.623041,5,EyesClosed
1489.2296778237437,4881.688044272429,-5775.064918406596,-7018.470110710873,29453.988904236427,-4432.954422587683,5192.846678834758,4600.994837402683,0.0,0.0,0.0,2019-03-17T21:16:57.623745,5,EyesClosed
1974.553105181826,5374.700471723137,-5273.245903640497,-6521.590831469397,29842.417519380753,-4582.018206360127,5656.935948960298,5022.369923874131,0.0,0.0,0.0,2019-03-17T21:16:57.631007,5,EyesClosed
1945.875817045667,5345.2408725310415,-5239.070086368333,-6479.480144915598,29956.59023005846,-4032.2994032263045,5685.926161518832,5119.912936677091,0.0,0.0,0.0,2019-03-17T21:16:57.631646,5,EyesClosed
1453.7798111176267,4849.345070045599,-5742.207854057295,-6966.748174041292,29583.606670332752,-3811.5088714967815,5220.182862303599,4700.035417084148,0.0,0.0,0.0,2019-03-17T21:16:57.638063,5,EyesClosed
1416.4076943883533,4821.673610409929,-5841.5390064166795,-7071.711966003414,29415.29803458429,-4328.392962025758,5126.73021873596,4537.292365705057,0.0,0.0,0.0,2019-03-17T21:16:57.644338,5,EyesClosed
1925.9604127359883,5336.009602071,-5328.857043845302,-6573.558637327986,29785.957012886647,-4596.457433278255,5597.525012198093,4950.397306728042,0.0,0.0,0.0,2019-03-17T21:16:57.645213,5,EyesClosed
2010.3829515436832,5414.218355920119,-5180.866143806714,-6425.567737289398,29985.26751819462,-4130.0659334738175,5735.703496420801,5140.878872976169,-0.004,1.002,0.28,2019-03-17T21:16:57.652380,5,EyesClosed
1542.5609400941064,4936.338059465655,-5634.293631827072,-6866.679414114883,29680.903813946705,-3774.4496791898823,5329.281726989952,4788.928304782904,0.0,0.0,0.0,2019-03-17T21:16:57.653161,5,EyesClosed
1385.2717143621105,4777.260694177234,-5839.817922093621,-7080.0715184297,29446.88104949964,-4193.209611560061,5141.549425309829,4547.32829896549,0.0,0.0,0.0,2019-03-17T21:16:57.660369,5,EyesClosed
1829.132655755598,5226.173129817621,-5409.390379117773,-6662.809152938027,29730.3682244263,-4606.29220083859,5542.360906882394,4872.926160445948,0.0,0.0,0.0,2019-03-17T21:16:57.661001,5,EyesClosed
2055.5558270878587,5448.371821447829,-5128.5854135257505,-6383.993492602527,30022.103193056966,-4217.148329871694,5805.597401332546,5171.433707646574,0.0,0.0,0.0,2019-03-17T21:16:57.667666,5,EyesClosed
1616.0758276076112,4998.162984629033,-5548.351174396417,-6791.510497511685,29758.46436720662,-3776.148411768486,5431.518606128527,4862.666709740962,0.0,0.0,0.0,2019-03-17T21:16:57.668305,5,EyesClosed
1344.4574289867198,4725.158777851913,-5878.084108601107,-7113.666190346025,29447.39513962211,-4092.38089232217,5135.045067673334,4534.297231948046,0.0,0.0,0.0,2019-03-17T21:16:57.675278,5,EyesClosed
1741.0667826016884,5127.713695491993,-5515.382351324839,-6758.653433162383,29662.30716255989,-4582.599351715965,5474.590417693904,4795.857345564049,0.0,0.0,0.0,2019-03-17T21:16:57.676008,5,EyesClosed
2053.9688532315317,5445.197873735175,-5143.650489288627,-6392.21893456208,30004.89234982638,-4326.895395147252,5821.15421547344,5160.146076696644,0.0,0.0,0.0,2019-03-17T21:16:57.683147,5,EyesClosed
1701.817119338169,5093.224953797455,-5446.606033635859,-6685.898504960359,29847.67017932775,-3792.107557309575,5549.893444763833,4966.311748780221,0.0,0.0,0.0,2019-03-17T21:16:57.684041,5,EyesClosed
1325.1455217773346,4711.032475356159,-5870.037480597196,-7112.1909752119755,29471.06563700028,-3989.2052399164727,5158.514399351407,4563.063927062026,-0.008,0.998,0.28200000000000003,2019-03-17T21:16:57.691250,5,EyesClosed
1632.6161185045385,5021.632316307106,-5609.259678037129,-6864.31012920262,29590.222786691524,-4537.7841040830735,5401.276695880496,4720.151987093925,0.0,0.0,0.0,2019-03-17T21:16:57.691896,5,EyesClosed
2043.865864737733,5437.50887364255,-5156.189817928054,-6420.359780831312,29976.617393090415,-4418.358733458368,5819.4107794059255,5133.7486664949265,0.0,0.0,0.0,2019-03-17T21:16:57.697415,5,EyesClosed
1806.6468008335592,5197.272324236908,-5344.1232853082765,-6597.944390528726,29918.34639529543,-3841.4378573224376,5648.218768622729,5044.609909607161,0.0,0.0,0.0,2019-03-17T21:16:57.705139,5,EyesClosed
1362.2717693175996,4745.454161817332,-5829.826692322099,-7073.790678237758,29515.679718933075,-3891.014026524309,5200.222754505009,4606.336904327501,0.0,0.0,0.0,2019-03-17T21:16:57.705832,5,EyesClosed
1567.0361002726675,4956.8346091311705,-5683.422766139837,-6931.141845123988,29542.70297797954,-4447.058373338982,5340.859930617801,4658.952910775293,0.0,0.0,0.0,2019-03-17T21:16:57.714733,5,EyesClosed
2024.2186813615183,5423.159053702242,-5187.862239821225,-6443.4938363425545,29939.379386827874,-4472.852286440407,5796.567296572602,5088.620494439661,0.0,0.0,0.0,2019-03-17T21:16:57.715381,5,EyesClosed
1900.591182779215,5283.795927023402,-5253.129333630721,-6501.80953762645,29978.40553264684,-3898.591267894658,5735.65879293189,5103.506756246896,0.0,0.0,0.0,2019-03-17T21:16:57.720974,5,EyesClosed
1406.3717611279203,4776.724252310307,-5766.750069469223,-7009.283543739742,29575.001248717457,-3809.1842900734296,5260.572464534338,4654.929596773338,0.0,0.0,0.0,2019-03-17T21:16:57.721943,5,EyesClosed
1459.1442297869003,4841.9019391419815,-5772.941502683342,-7016.234936265342,29483.940241806537,-4371.822401502419,5259.298415100386,4576.4302702463,0.0,0.0,0.0,2019-03-17T21:16:57.727418,5,EyesClosed
1967.9593405675103,5354.718012180092,-5252.9058161861685,-6503.485918460598,29884.751723379104,-4526.921156277795,5746.879368648454,5015.932621471003,-0.004,1.002,0.28200000000000003,2019-03-17T21:16:57.728121,5,EyesClosed
1950.972014781477,5328.611174656293,-5206.861222608236,-6457.888359771772,30004.780591104103,-4009.7688448153554,5789.012406946708,5120.002343654913,0.0,0.0,0.0,2019-03-17T21:16:57.735400,5,EyesClosed
1466.5650089460623,4840.650241452485,-5688.854240042477,-6925.777426454714,29658.239145069023,-3756.9035597924662,5345.911424864701,4724.577632496075,0.0,0.0,0.0,2019-03-17T21:16:57.736059,5,EyesClosed
1403.1531099263561,4780.479345378798,-5819.209613705828,-7054.456419283917,29474.41839866858,-4258.566112347378,5230.911699642146,4542.321508207501,0.0,0.0,0.0,2019-03-17T21:16:57.743544,5,EyesClosed
1897.8642699556674,5281.069014199855,-5324.0514187874105,-6574.0950791949135,29821.317472614945,-4562.9074648508395,5684.115670217952,4934.304050720221,0.0,0.0,0.0,2019-03-17T21:16:57.744341,5,EyesClosed
2013.802768445345,5387.7985939739465,-5137.079076418767,-6390.162574072191,30044.36553053445,-4102.752101749433,5859.085125814096,5160.7495737969375,0.0,0.0,0.0,2019-03-17T21:16:57.750106,5,EyesClosed
1536.280099902165,4904.464471872387,-5592.652331906836,-6835.521082344185,29736.73847159606,-3735.5799955821035,5447.567158647437,4808.486081181298,0.0,0.0,0.0,2019-03-17T21:16:57.750744,5,EyesClosed
1366.160972852823,4741.229682115279,-5824.149349230451,-7064.313538588708,29490.98104130996,-4126.7802270388875,5243.205159092565,4556.1572380253365,0.0,0.0,0.0,2019-03-17T21:16:57.756944,5,EyesClosed
1809.7983968017575,5189.382158444186,-5403.288352881474,-6657.176513335289,29764.65580042074,-4549.965804811216,5641.289727841584,4876.211866880878,0.0,0.0,0.0,2019-03-17T21:16:57.757730,5,EyesClosed
2061.0096527349538,5434.849016052368,-5100.019884111868,-6359.451277190599,30069.354780835485,-4190.415643503147,5929.023734214751,5193.159603257132,0.0,0.0,0.0,2019-03-17T21:16:57.765839,5,EyesClosed
1639.2992900966753,5008.556545800751,-5490.70602544618,-6741.241424231699,29824.84904823888,-3730.237928657285,5570.702918851724,4908.197213196423,-0.006,1.006,0.28200000000000003,2019-03-17T21:16:57.773106,5,EyesClosed
1331.806341625016,4702.561164207597,-5841.516654672224,-7092.476736602394,29490.44459944303,-4031.6064991481903,5243.003993392467,4554.592615913465,0.0,0.0,0.0,2019-03-17T21:16:57.773786,5,EyesClosed
1732.4837127308504,5103.618514969172,-5474.188086293708,-6736.636964873906,29708.798791026926,-4515.566470094499,5583.666930635802,4812.196470760879,0.0,0.0,0.0,2019-03-17T21:16:57.779666,5,EyesClosed
2072.252580195973,5443.655603367759,-5078.450450712497,-6352.946919554105,30058.469481285752,-4287.310455716903,5946.927481523452,5181.983731029479,0.0,0.0,0.0,2019-03-17T21:16:57.780307,5,EyesClosed
1736.3729162660738,5103.372645780164,-5373.11349786681,-6635.36121074691,29899.973261353167,-3763.1843999844077,5679.868838771444,4988.887010680081,0.0,0.0,0.0,2019-03-17T21:16:57.787660,5,EyesClosed
1364.8198681855044,4730.03145814317,-5791.538154070157,-7048.10852385861,29538.18792559957,-3917.1879192814736,5296.849345785302,4595.943343155783,0.0,0.0,0.0,2019-03-17T21:16:57.788365,5,EyesClosed
1653.3138338701528,5021.073522695723,-5552.083915720453,-6819.450178080819,29643.419938495153,-4469.253655583102,5521.059694416487,4735.909966934916,0.0,0.0,0.0,2019-03-17T21:16:57.795714,5,EyesClosed
2063.937731258599,5426.511815370538,-5104.266715558376,-6375.209257031591,30018.571617433026,-4381.992445229584,5937.383286641037,5148.076134690778,0.0,0.0,0.0,2019-03-17T21:16:57.796406,5,EyesClosed
1843.1919030179863,5196.355902714241,-5279.571447321349,-6532.967869397148,29970.515366854117,-3810.9053743964882,5783.491526066247,5077.422270467552,0.0,0.0,0.0,2019-03-17T21:16:57.802931,5,EyesClosed
1395.2629441336328,4749.544531052653,-5759.3069385656045,-6998.4876511678285,29585.931251756105,-3819.399037289505,5344.1232853082765,4654.996652006705,0.0,0.0,0.0,2019-03-17T21:16:57.803643,5,EyesClosed
1571.1711729968993,4930.325440207176,-5642.787294720089,-6883.398518967452,29591.318022169835,-4379.19847717267,5453.959757561655,4687.317274489078,-0.008,1.014,0.28200000000000003,2019-03-17T21:16:57.810396,5,EyesClosed
2032.0194401764204,5402.930724970189,-5153.0605737043115,-6402.366626544789,29978.964326258225,-4441.984527347628,5907.320190348648,5114.459111029996,0.0,0.0,0.0,2019-03-17T21:16:57.811277,5,EyesClosed
1906.3132293597735,5265.914531459157,-5222.954478616057,-6466.627891853797,30007.50750392765,-3903.10632027463,5843.751829117755,5129.837111215247,0.0,0.0,0.0,2019-03-17T21:16:57.818334,5,EyesClosed
1431.159845728856,4784.4356041473875,-5714.93872582182,-6947.637432532005,29632.936970345614,-3764.816077329645,5394.995855688555,4718.185033581857,0.0,0.0,0.0,2019-03-17T21:16:57.818979,5,EyesClosed
1474.2316572942327,4835.039953594202,-5733.937708608832,-6969.586845587117,29536.84682093225,-4304.5660024364,5386.412785817717,4635.975317475238,0.0,0.0,0.0,2019-03-17T21:16:57.825677,5,EyesClosed
1977.8611633612113,5347.207826043109,-5217.500652968962,-6470.226522711101,29923.509648264608,-4490.666626771286,5858.0345938246965,5063.206560993977,0.0,0.0,0.0,2019-03-17T21:16:57.831950,5,EyesClosed
2004.2362218184737,5371.235951332564,-5127.087846647245,-6380.819544889873,30080.217728640764,-3968.932207695509,5939.439647130925,5208.9399348425795,0.0,0.0,0.0,2019-03-17T21:16:57.832779,5,EyesClosed
1497.0751401275566,4857.77167770525,-5630.8291114365,-6871.306225217131,29718.41004114271,-3718.1009314180533,5482.234714297619,4798.383092687499,0.0,0.0,0.0,2019-03-17T21:16:57.839920,5,EyesClosed
1416.1618251993448,4772.5221243527085,-5771.7121567383,-7012.211622263387,29533.94109415306,-4190.214477803049,5362.496419250539,4614.607049775965,0.0,0.0,0.0,2019-03-17T21:16:57.840696,5,EyesClosed
1892.6116100086701,5246.066182382844,-5302.19141271012,-6557.241863875612,29862.62349636835,-4524.775388810085,5797.90840123992,4983.8355164331815,0.0,0.0,0.0,2019-03-17T21:16:57.847991,5,EyesClosed
2046.2351496499957,5398.1250999122985,-5082.9207996035575,-6344.609718872276,30113.901807534912,-4081.294427072338,6001.8457176501415,5232.811597920847,-0.012,1.008,0.278,2019-03-17T21:16:57.848647,5,EyesClosed
1578.3013794781423,4924.73750409335,-5530.76035151009,-6789.543543999618,29815.908350456757,-3705.9415824343664,5587.600837659936,4881.9339134614365,0.0,0.0,0.0,2019-03-17T21:16:57.855132,5,EyesClosed
1382.7459672386608,4728.824463942583,-5788.0065784462195,-7044.956927890412,29551.375454828198,-4085.965941663497,5354.092163335343,4600.950133913771,0.0,0.0,0.0,2019-03-17T21:16:57.855801,5,EyesClosed
1821.1530829850535,5170.740803568459,-5372.06296587741,-6638.3116410150105,29819.395222591786,-4519.343914907446,5743.012516857686,4913.181652209956,0.0,0.0,0.0,2019-03-17T21:16:57.862563,5,EyesClosed
2088.0776152703306,5437.486521898094,-5046.062772996756,-6316.491224347499,30137.10291827952,-4181.251428276471,6041.810636736231,5242.780475947914,0.0,0.0,0.0,2019-03-17T21:16:57.863417,5,EyesClosed
1678.7054155713815,5023.8674907526365,-5431.1162747283315,-6686.122022404912,29903.52718872156,-3716.9609924508327,5690.3294551765275,4970.379766271087,0.0,0.0,0.0,2019-03-17T21:16:57.870628,5,EyesClosed
1360.863609416915,4706.092739831536,-5809.598363590046,-7056.870407685091,29557.343370597766,-3996.31309465326,5342.804532385413,4601.128947869414,0.0,0.0,0.0,2019-03-17T21:16:57.871270,5,EyesClosed
1732.5731197086716,5078.785726879326,-5475.752708405579,-6735.385267184409,29743.108718765823,-4504.345894377934,5648.196416878273,4826.367476745543,0.0,0.0,0.0,2019-03-17T21:16:57.880064,5,EyesClosed
2091.1398042607075,5431.898585784267,-5066.827543595737,-6336.0713524903485,30109.34205166603,-4300.855612856819,6024.666848739011,5210.661019165638,0.0,0.0,0.0,2019-03-17T21:16:57.880702,5,EyesClosed
1776.1366696520652,5110.0558173723,-5341.0163928289885,-6598.726701584662,29979.03138149159,-3767.2300657308183,5776.338967840549,5040.005450249369,0.0,0.0,0.0,2019-03-17T21:16:57.886356,5,EyesClosed
1383.4612230612306,4720.487263260754,-5771.198066615828,-7019.319477000175,29615.748478859485,-3888.3765206785824,5381.383643315273,4644.066648968059,0.0,0.0,0.0,2019-03-17T21:16:57.892314,5,EyesClosed
1630.1574266144546,4970.111545337623,-5573.385128186361,-6830.06725669709,29688.905738461704,-4458.524818244555,5567.2383984611515,4745.007126928226,-0.016,1.0,0.28800000000000003,2019-03-17T21:16:57.892958,5,EyesClosed
2062.417812635638,5402.30487612544,-5108.1559190936,-6371.409460474189,30083.749304264704,-4399.9632477716505,6001.577496716678,5164.839943032258,0.0,0.0,0.0,2019-03-17T21:16:57.900196,5,EyesClosed
1860.9615398599553,5192.846678834758,-5251.140028374199,-6501.876592859816,30067.90191744589,-3826.0822088816417,5878.419384767936,5120.404675055108,0.0,0.0,0.0,2019-03-17T21:16:57.900857,5,EyesClosed
1400.8061767585489,4731.50667327722,-5739.615051700479,-6975.2418369343095,29682.915470947682,-3813.0511418641977,5434.737257330091,4695.162736792891,0.0,0.0,0.0,2019-03-17T21:16:57.908107,5,EyesClosed
1552.440411143352,4885.532544318741,-5650.990384935187,-6893.367396994519,29668.49859577401,-4380.897209751273,5521.551432794504,4698.850774628017,0.0,0.0,0.0,2019-03-17T21:16:57.908969,5,EyesClosed
2033.7181727550237,5368.509038509016,-5139.9177479645905,-6396.465766008588,30072.685190759326,-4462.391670035323,5994.357883257614,5138.241367130443,0.0,0.0,0.0,2019-03-17T21:16:57.916257,5,EyesClosed
1930.6319273271477,5267.277987870931,-5175.948760026546,-6423.690190755152,30140.38862471445,-3925.1227885631074,5967.692252122432,5182.319007196308,0.0,0.0,0.0,2019-03-17T21:16:57.916954,5,EyesClosed
1445.9567005582692,4777.350101155055,-5673.275074157128,-6911.874641403514,29774.1776435587,-3776.3048739796727,5508.498014032604,4763.693185292863,0.0,0.0,0.0,2019-03-17T21:16:57.922759,5,EyesClosed
1486.1674888333666,4814.990438817792,-5692.028187755131,-6939.479045805818,29687.49757856102,-4294.395958709235,5492.8964964028,4677.415451695377,0.0,0.0,0.0,2019-03-17T21:16:57.923506,5,EyesClosed
1976.6541691606249,5306.326485434352,-5193.718396868515,-6455.384964392778,30068.885394201923,-4530.609194112921,5953.923577537964,5083.546648448307,0.0,0.0,0.0,2019-03-17T21:16:57.930913,5,EyesClosed
2014.450969034549,5340.614061428793,-5097.248267799409,-6355.137390510726,30244.279532942717,-4045.8892638551315,6049.946671717963,5239.092438112788,-0.016,1.0,0.28600000000000003,2019-03-17T21:16:57.931866,5,EyesClosed
1530.0663149435898,4850.4179537794535,-5579.956541056221,-6824.188747905344,29911.529113236564,-3768.593522142592,5612.768901916612,4856.00588989328,0.0,0.0,0.0,2019-03-17T21:16:57.937955,5,EyesClosed
1413.5243193536187,4740.380315825977,-5749.494522749726,-6997.414767433974,29709.134067193758,-4240.349440616303,5457.424277952227,4645.810085035573,0.0,0.0,0.0,2019-03-17T21:16:57.938630,5,EyesClosed
1885.168479105053,5221.501615226462,-5277.068051942355,-6544.434314302721,30044.52199274564,-4594.825755933018,5894.400882053481,5015.843214493181,0.0,0.0,0.0,2019-03-17T21:16:57.946116,5,EyesClosed
2042.1447804146744,5371.548875754938,-5052.276557955332,-6333.9032332781835,30297.253167301795,-4200.496280252491,6097.4664804299455,5261.08655465681,0.0,0.0,0.0,2019-03-17T21:16:57.952330,5,EyesClosed
1614.2206328178208,4924.9610215379025,-5468.644853668792,-6740.280299220121,30031.870905383934,-3800.3777027580386,5713.776435110144,4946.843379359649,0.0,0.0,0.0,2019-03-17T21:16:57.952985,5,EyesClosed
1382.8577259609374,4683.316312231578,-5776.182505629362,-7044.308727301208,29728.40127091423,-4197.188222073105,5427.942327015678,4622.653677779875,0.0,0.0,0.0,2019-03-17T21:16:57.960479,5,EyesClosed
1792.4087396155287,5104.445529514019,-5395.241724877564,-6675.102612388446,29967.006142974635,-4678.756556362696,5779.401156830926,4896.060215957191,0.0,0.0,0.0,2019-03-17T21:16:57.961123,5,EyesClosed
2090.7151211160567,5406.954038972144,-5026.750865787371,-6318.547584837388,30319.33669082364,-4360.154790896749,6117.627753928632,5256.415040065652,0.0,0.0,0.0,2019-03-17T21:16:57.967093,5,EyesClosed
1694.5751541346497,5004.354417843154,-5373.8287536893795,-6662.093897115457,30108.850313288014,-3887.7953753227443,5792.074595937085,5007.729531255905,0.0,0.0,0.0,2019-03-17T21:16:57.967730,5,EyesClosed
1367.703243220239,4674.509724916187,-5754.993051885731,-7040.1065993436105,29762.197108530654,-4143.745201080465,5438.559405631949,4634.433047107822,-0.012,1.002,0.28600000000000003,2019-03-17T21:16:57.975177,5,EyesClosed
1715.5634421781829,5026.214423920444,-5448.349469703373,-6744.929462066825,29929.008177400614,-4679.181239507347,5726.651039916402,4834.548215216186,0.0,0.0,0.0,2019-03-17T21:16:57.975958,5,EyesClosed
2089.016388537453,5399.466204579617,-5029.142502444089,-6332.696239077597,30299.37658302505,-4520.953240508227,6113.760902137864,5224.183824561099,0.0,0.0,0.0,2019-03-17T21:16:57.983015,5,EyesClosed
1806.4232833890062,5108.647657471616,-5270.250769883486,-6558.940596454215,30196.625613764005,-3983.974931713931,5898.826527455632,5084.820697882259,0.0,0.0,0.0,2019-03-17T21:16:57.983727,5,EyesClosed
1394.9500197112584,4695.408605981899,-5718.716170634767,-6996.1407180000215,29825.29608312799,-4097.208869124516,5488.1132230893645,4675.873181327961,0.0,0.0,0.0,2019-03-17T21:16:57.990175,5,EyesClosed
1624.2118625893431,4936.159245510012,-5538.114075435887,-6818.533756558151,29889.44558971472,-4671.3804806924445,5664.401431608371,4766.598912072052,0.0,0.0,0.0,2019-03-17T21:16:57.990811,5,EyesClosed
2072.252580195973,5387.418614318206,-5047.336822430709,-6337.323050179845,30298.48251324684,-4638.478712854232,6122.276916775337,5206.637705163683,0.0,0.0,0.0,2019-03-17T21:16:57.997879,5,EyesClosed
1894.1762321205417,5194.299542224353,-5171.456059391029,-6455.161446948225,30293.788646911224,-4089.09518588724,6014.42974977848,5173.6688820921045,0.0,0.0,0.0,2019-03-17T21:16:57.998674,5,EyesClosed
1416.675915321817,4712.9994288682265,-5670.235236911206,-6949.582034299617,29898.38628749684,-4074.2089240800055,5552.9779854986655,4734.278289589678,0.0,0.0,0.0,2019-03-17T21:16:58.004839,5,EyesClosed
1542.2256639272766,4832.8047791486715,-5606.845689635956,-6899.536478464184,29861.52826089004,-4648.134666458925,5615.227593806696,4714.206423068813,0.0,0.0,0.0,2019-03-17T21:16:58.005696,5,EyesClosed
2053.2983008978727,5345.2408725310415,-5077.914008845569,-6383.188829802136,30280.489358960316,-4745.767086239706,6109.089387546705,5169.35499541223,-0.014,1.0,0.28400000000000003,2019-03-17T21:16:58.012742,5,EyesClosed
1987.7629861549124,5284.645293312704,-5075.209447766477,-6376.148030298714,30373.740836827856,-4215.6954664821,6119.30413476278,5246.267348082942,0.0,0.0,0.0,2019-03-17T21:16:58.019746,5,EyesClosed
1487.5980004785063,4782.513354124231,-5582.8175643465,-6870.278044972187,29990.587233374983,-4056.3722320046704,5649.582225034503,4819.684305153407,0.0,0.0,0.0,2019-03-17T21:16:58.020714,5,EyesClosed
1484.1334800879335,4778.199467444357,-5652.1750273913185,-6942.876510963025,29852.520507874553,-4589.617799474931,5583.644578891347,4687.429033211355,0.0,0.0,0.0,2019-03-17T21:16:58.027409,5,EyesClosed
1998.5588787268257,5299.240982442019,-5134.352163595219,-6436.60949905032,30238.669245084435,-4830.189625047401,6064.855285269652,5109.698189461015,0.0,0.0,0.0,2019-03-17T21:16:58.028043,5,EyesClosed
2063.8259725363223,5359.8589134048125,-5006.410778333042,-6306.4329393426115,30426.558008975746,-4352.5775495264,6183.475993093967,5285.248790412998,0.0,0.0,0.0,2019-03-17T21:16:58.035977,5,EyesClosed
1583.151708024944,4874.11080290208,-5484.760461421069,-6774.254950792188,30089.76192352318,-4052.974766847464,5741.783170912644,4903.928030005459,0.0,0.0,0.0,2019-03-17T21:16:58.036647,5,EyesClosed
1450.9411395718028,4750.885635719971,-5680.070004471541,-6969.832714776125,29861.349446934397,-4511.453749114722,5567.484267650159,4670.575817892053,0.0,0.0,0.0,2019-03-17T21:16:58.043467,5,EyesClosed
1911.655296284592,5218.014743091434,-5210.7057226545485,-6533.973697897637,30166.20488956033,-4898.92123924747,5983.092604052139,5013.51863306983,0.0,0.0,0.0,2019-03-17T21:16:58.044115,5,EyesClosed
2110.7869876369223,5411.1561669297425,-4881.777451250249,-6280.929598919106,30440.661959727047,-4508.4362636132555,6219.350542944735,5290.9484852491005,0.0,0.0,0.0,2019-03-17T21:16:58.049947,5,EyesClosed
1649.826961735125,4948.385649727064,-5313.993133782522,-6704.2939906470765,30155.610162688514,-4114.330305377282,5823.367038174515,4961.88610337807,-0.014,1.01,0.278,2019-03-17T21:16:58.050586,5,EyesClosed
1396.671104034317,4697.308504260601,-5623.363628788427,-7011.362255974085,29854.733330575626,-4468.650158482809,5548.127656951864,4642.971413489749,0.0,0.0,0.0,2019-03-17T21:16:58.057873,5,EyesClosed
1809.239603190375,5108.625305727161,-5271.368357106252,-6637.037591581058,30095.506321848196,-4942.775361868783,5911.723484006344,4919.216623212889,0.0,0.0,0.0,2019-03-17T21:16:58.058611,5,EyesClosed
2108.283592257928,5402.9754284591,-4939.646117645039,-6289.6467792566755,30426.960340375943,-4674.040338282626,6235.264984996914,5260.684223256615,0.0,0.0,0.0,2019-03-17T21:16:58.066020,5,EyesClosed
1758.7023089769257,5048.1414852311,-5259.387822078207,-6591.663550336784,30263.32321921864,-4166.856904847254,5952.783638570743,5055.405802179075,0.0,0.0,0.0,2019-03-17T21:16:58.066824,5,EyesClosed
1392.0889964209791,4679.650626140908,-5666.994233965187,-6995.827793577647,29906.49997073412,-4397.795128559485,5584.940980069755,4671.2687219701675,0.0,0.0,0.0,2019-03-17T21:16:58.073456,5,EyesClosed
1714.982296822345,5008.243621378377,-5391.486631809072,-6728.366819425442,30055.586106251016,-4937.45564668842,5853.877169356009,4852.317852058155,0.0,0.0,0.0,2019-03-17T21:16:58.079592,5,EyesClosed
2119.928851119143,5416.632344321292,-4947.804504371226,-6293.357168836256,30448.06038714175,-4785.419080903421,6272.637101726187,5267.322691359841,0.0,0.0,0.0,2019-03-17T21:16:58.080348,5,EyesClosed
1850.3444612436845,5147.450285846029,-5170.986672757468,-6503.865898116338,30364.218993689898,-4240.50590282749,6075.360605163647,5151.317137636797,0.0,0.0,0.0,2019-03-17T21:16:58.087653,5,EyesClosed
1413.256098420155,4704.058731086103,-5653.158504147352,-6976.76175555727,29966.626163318895,-4340.060572631428,5638.07107664002,4717.536832992653,0.0,0.0,0.0,2019-03-17T21:16:58.088294,5,EyesClosed
1626.0447056346782,4914.321591177177,-5492.784737680524,-6827.809730507104,30007.84278009448,-4911.907602776004,5788.677130779878,4784.94969426986,-0.014,1.01,0.28400000000000003,2019-03-17T21:16:58.095713,5,EyesClosed
2080.0309872664197,5379.193172358653,-4997.157156128545,-6342.285137448924,30415.046860581264,-4898.094224702624,6246.239691524469,5224.921432128123,0.0,0.0,0.0,2019-03-17T21:16:58.096653,5,EyesClosed
1926.1392266916307,5219.668772181127,-5092.844974141714,-6430.6415832807525,30428.815535165733,-4326.113084091316,6157.480914292445,5215.198423290065,0.0,0.0,0.0,2019-03-17T21:16:58.102251,5,EyesClosed
1459.3677472314534,4742.369621082499,-5584.717462625202,-6912.925173392913,30042.93501888931,-4233.576862046345,5706.288600717617,4786.938999526382,0.0,0.0,0.0,2019-03-17T21:16:58.102952,5,EyesClosed
1557.6483676014386,4833.76590416025,-5550.787514542046,-6885.41017596843,29983.9264135273,-4774.332615653589,5741.671412190368,4739.486246047765,0.0,0.0,0.0,2019-03-17T21:16:58.110134,5,EyesClosed
2032.4217715766158,5308.606363368794,-5056.746906846393,-6407.351065558322,30358.161670942507,-4930.2136814849,6196.216487433492,5147.696155035038,0.0,0.0,0.0,2019-03-17T21:16:58.110746,5,EyesClosed
1995.1167100807083,5270.608397794771,-5031.467083867441,-6376.572713443365,30464.153643149573,-4406.624067619332,6215.70720859852,5235.60556597776,0.0,0.0,0.0,2019-03-17T21:16:58.118450,5,EyesClosed
1518.957497949302,4784.9049907809485,-5521.596136283414,-6848.999184250735,30103.172970196363,-4192.561410970857,5764.246674090228,4831.6871919259065,0.0,0.0,0.0,2019-03-17T21:16:58.118834,5,EyesClosed
1474.4104712498752,4744.425981572388,-5631.857291681444,-6961.51786583875,29933.54558152504,-4712.954725379315,5666.636606053902,4661.97039627676,0.0,0.0,0.0,2019-03-17T21:16:58.126504,5,EyesClosed
1979.9845790844656,5255.252749353976,-5127.065494902789,-6471.098240744858,30306.46208601738,-4978.091118108167,6137.587861727222,5067.207523251477,0.0,0.0,0.0,2019-03-17T21:16:58.126753,5,EyesClosed
2079.31573144385,5342.022221329477,-4965.104754579635,-6313.071407445837,30518.222512986962,-4513.979496238172,6288.573895522821,5267.769726248947,-0.014,1.008,0.28400000000000003,2019-03-17T21:16:58.132955,5,EyesClosed
1622.7142957108374,4873.216733123867,-5409.770358773513,-6756.306499994576,30214.59641630607,-4173.070689805829,5876.810059167155,4913.82985279916,0.0,0.0,0.0,2019-03-17T21:16:58.139580,5,EyesClosed
1476.3327212730314,4721.940126650349,-5619.027390364098,-6974.459525878374,29985.93807052828,-4597.57502050102,5688.4519086422815,4669.748803347207,0.0,0.0,0.0,2019-03-17T21:16:58.140033,5,EyesClosed
1916.9303079760443,5168.371518656197,-5189.426861933096,-6561.287529622023,30274.499091446294,-5008.46713882293,6088.615189625644,4994.251429349355,0.0,0.0,0.0,2019-03-17T21:16:58.147701,5,EyesClosed
2125.159159321685,5377.136811868765,-4922.055294758713,-6296.53111654891,30552.28657153685,-4648.447590881299,6335.736076323518,5280.510220588472,0.0,0.0,0.0,2019-03-17T21:16:58.148329,5,EyesClosed
1706.756854862792,4954.465324218908,-5318.865814073779,-6677.069565900513,30308.965481396375,-4210.532213512924,5978.935179583452,4996.79952821726,0.0,0.0,0.0,2019-03-17T21:16:58.155126,5,EyesClosed
1431.383363173409,4673.369785948967,-5661.830980996011,-7012.837471108136,29988.64263160737,-4548.334127465979,5671.6657485563455,4656.87419854095,0.0,0.0,0.0,2019-03-17T21:16:58.155798,5,EyesClosed
1828.327992955207,5077.3999187230975,-5296.916401018668,-6658.115286602412,30210.975433704312,-5033.702258312972,6011.85929916612,4919.373085424076,0.0,0.0,0.0,2019-03-17T21:16:58.162595,5,EyesClosed
2142.057078129897,5386.502192795539,-4927.978507039369,-6297.179317138114,30550.38667325815,-4788.794194316172,6351.337593953323,5277.80565950938,0.0,0.0,0.0,2019-03-17T21:16:58.163255,5,EyesClosed
1812.5029578808496,5041.346554916687,-5226.195481562077,-6584.510992111086,30394.39384870456,-4271.463068898091,6080.099174988172,5086.474726971952,0.0,0.0,0.0,2019-03-17T21:16:58.172110,5,EyesClosed
1448.929482570825,4674.934408060838,-5643.167274375829,-6995.112537755077,30026.84176288149,-4469.3430625609235,5698.55489713608,4694.894515859427,-0.01,1.0,0.28400000000000003,2019-03-17T21:16:58.172841,5,EyesClosed
1760.8257247001798,4993.357359571142,-5379.260227592019,-6741.263775976155,30152.68208416487,-5013.317467369731,5942.568891354667,4859.20218935039,0.0,0.0,0.0,2019-03-17T21:16:58.179336,5,EyesClosed
2168.3203778648826,5410.038579706977,-4921.608259869607,-6293.670093258631,30539.121394052672,-4890.718149032373,6362.826390603351,5279.28087464343,0.0,0.0,0.0,2019-03-17T21:16:58.180031,5,EyesClosed
1895.1597088765752,5137.548463052329,-5131.938175194046,-6488.130270019802,30455.235297111907,-4351.281148347992,6179.27386513637,5177.312216438319,0.0,0.0,0.0,2019-03-17T21:16:58.185491,5,EyesClosed
1439.6982121107833,4672.185143492835,-5609.952582115243,-6960.9814239718235,30051.451033526784,-4416.548242157489,5733.714191164278,4748.918682207905,0.0,0.0,0.0,2019-03-17T21:16:58.186269,5,EyesClosed
1650.3187001131416,4873.641416268518,-5450.182312748709,-6816.879727468458,30079.636583284926,-4972.950216883447,5874.105498088062,4810.7883108601945,0.0,0.0,0.0,2019-03-17T21:16:58.192310,5,EyesClosed
2123.70629593209,5348.124247565776,-4946.396344470542,-6330.706933821075,30479.777512523833,-5001.001656174857,6328.136483208715,5241.6405369806935,0.0,0.0,0.0,2019-03-17T21:16:58.200149,5,EyesClosed
1973.3014074923287,5192.556106156839,-5039.245490937888,-6418.571641274887,30486.639498071614,-4481.07772839996,6232.314554728813,5225.36846701723,0.0,0.0,0.0,2019-03-17T21:16:58.200848,5,EyesClosed
1495.0858348710342,4712.753559679218,-5536.236528901641,-6904.1632895664325,30100.557816095094,-4395.336436669402,5774.841400962044,4795.90204905296,0.0,0.0,0.0,2019-03-17T21:16:58.208182,5,EyesClosed
1565.1585537384217,4789.084766994091,-5531.520310821571,-6901.369321509519,30024.494829713683,-4946.306937492721,5787.134860412462,4728.444484286843,0.0,0.0,0.0,2019-03-17T21:16:58.208877,5,EyesClosed
2065.3905946481937,5295.038854484422,-5021.721723284927,-6400.623190477275,30415.53859895928,-5117.007209897901,6257.281453285391,5153.619367315694,-0.016,0.994,0.28400000000000003,2019-03-17T21:16:58.214955,5,EyesClosed
2061.702556813068,5286.701653802593,-4966.714080180416,-6339.424114158644,30543.345873754726,-4610.404921818366,6305.136538164204,5269.401403594185,0.0,0.0,0.0,2019-03-17T21:16:58.215852,5,EyesClosed
1575.663873632416,4790.962313528337,-5451.03167903801,-6818.332590858054,30188.042543893167,-4390.575515100421,5848.356288475548,4864.141924875013,0.0,0.0,0.0,2019-03-17T21:16:58.222896,5,EyesClosed
1525.8641869859919,4743.800132727639,-5556.688375078246,-6935.589842270594,30033.212010051255,-4885.06315768518,5746.23116805925,4699.141347305936,0.0,0.0,0.0,2019-03-17T21:16:58.223543,5,EyesClosed
2004.0574078628313,5227.17895831811,-5082.093785058712,-6476.797935580962,30372.131511227075,-5207.218850519521,6185.934684984051,5072.19196226501,0.0,0.0,0.0,2019-03-17T21:16:58.230873,5,EyesClosed
2139.2407583285285,5354.941529624645,-4892.6180473110735,-6282.315407075335,30598.77820000389,-4763.2461504037565,6361.775858613952,5299.173927208653,0.0,0.0,0.0,2019-03-17T21:16:58.231575,5,EyesClosed
1673.922142257946,4887.387739108532,-5340.636413173248,-6719.515528621141,30289.340649764617,-4412.614335133354,5950.123780980562,4952.878350362582,0.0,0.0,0.0,2019-03-17T21:16:58.237488,5,EyesClosed
1469.5824944475287,4688.703082645307,-5605.68339892428,-6980.606255603583,30006.054640538056,-4844.271224054244,5710.781301353133,4666.194875978813,0.0,0.0,0.0,2019-03-17T21:16:58.238270,5,EyesClosed
1904.0557031697874,5127.333715836253,-5182.654283363138,-6569.736489026129,30281.80811188318,-5271.301301872886,6105.647218900588,4982.449708276953,0.0,0.0,0.0,2019-03-17T21:16:58.245284,5,EyesClosed
2148.539084021936,5367.190285586154,-4869.6628057554735,-6264.769287677919,30585.925946942087,-4921.07181800268,6387.972103115571,5297.721063819059,0.0,0.0,0.0,2019-03-17T21:16:58.245904,5,EyesClosed
1734.3836110095515,4947.022193315291,-5251.8552841967685,-6634.489492713153,30340.280275378263,-4480.541286533033,6033.942822687963,5024.8062640197595,-0.018000000000000002,0.998,0.28600000000000003,2019-03-17T21:16:58.252290,5,EyesClosed
1440.1675987443446,4640.065686710559,-5608.030332092087,-6981.299159681697,30008.870960339424,-4783.116851224524,5710.51308041967,4679.091832529525,0.0,0.0,0.0,2019-03-17T21:16:58.252646,5,EyesClosed
1817.1744724720088,5011.574031302218,-5269.401403594185,-6654.0472691115465,30205.16398014593,-5286.858116013779,6030.590061019667,4915.014495255291,0.0,0.0,0.0,2019-03-17T21:16:58.260472,5,EyesClosed
2169.996758699031,5364.999814629533,-4861.05738414018,-6256.275624784902,30575.91236542611,-5054.377621934131,6406.948734158127,5302.772558065958,0.0,0.0,0.0,2019-03-17T21:16:58.266670,5,EyesClosed
1835.3240889697183,5027.846101265682,-5152.904111493124,-6532.990221141604,30430.02252936632,-4539.304022706035,6141.208844328981,5119.242384343432,0.0,0.0,0.0,2019-03-17T21:16:58.267028,5,EyesClosed
1456.640834407906,4644.424276879344,-5577.967235799699,-6945.625775531027,30067.879565701434,-4696.570896693575,5751.953214639809,4726.6786964748735,0.0,0.0,0.0,2019-03-17T21:16:58.275023,5,EyesClosed
1739.7033261899146,4933.208815241911,-5342.782180640957,-6716.095711719479,30175.25734606473,-5244.076877126322,5970.955606812908,4864.901884186493,0.0,0.0,0.0,2019-03-17T21:16:58.275933,5,EyesClosed
2151.4224590566705,5348.459523732606,-4884.057329184691,-6268.14440109067,30561.51784199689,-5164.057631976322,6391.235457806046,5276.241037397509,0.0,0.0,0.0,2019-03-17T21:16:58.283263,5,EyesClosed
1932.5094738613934,5124.20447161251,-5051.8071713217705,-6423.690190755152,30512.455762917492,-4611.902488696872,6238.796560620852,5203.575516173305,0.0,0.0,0.0,2019-03-17T21:16:58.284227,5,EyesClosed
1485.6757504553498,4668.407698679888,-5540.148084181319,-6899.357664508541,30113.991214512735,-4643.172579189847,5786.643122034446,4769.862266762527,0.0,0.0,0.0,2019-03-17T21:16:58.290230,5,EyesClosed
1651.4139355914517,4835.263471038756,-5436.972431775622,-6805.882669196448,30109.54321736613,-5222.172167560121,5885.728405204822,4779.89820002296,-0.02,1.002,0.28400000000000003,2019-03-17T21:16:58.290891,5,EyesClosed
2117.671324929157,5314.149595993709,-4937.388591455054,-6320.425131371633,30506.621957614658,-5291.686092816126,6344.430904916633,5205.318952240819,0.0,0.0,0.0,2019-03-17T21:16:58.297895,5,EyesClosed
2015.1885766015741,5209.051693564856,-4974.872466906603,-6355.293852721912,30561.29432455234,-4747.599929285041,6305.874145731229,5240.545301502383,0.0,0.0,0.0,2019-03-17T21:16:58.298618,5,EyesClosed
1538.8952540034359,4720.017876627192,-5458.0054233080655,-6835.431675366363,30186.45557003684,-4623.838320236006,5854.212445522839,4823.349991244077,0.0,0.0,0.0,2019-03-17T21:16:58.305888,5,EyesClosed
1586.9515045823462,4760.675699791396,-5476.17739155023,-6860.264463456209,30091.214786912777,-5170.561989612816,5838.745038359766,4734.390048311955,0.0,0.0,0.0,2019-03-17T21:16:58.306723,5,EyesClosed
2073.1019464852748,5246.222644594031,-4985.154269356045,-6380.305454767401,30462.611372782158,-5388.245628863052,6292.016064168938,5139.1130851642,0.0,0.0,0.0,2019-03-17T21:16:58.313790,5,EyesClosed
2103.545022433403,5269.446107083096,-4890.852259499105,-6282.829497197807,30621.15229620365,-4879.96695994937,6375.969216343072,5289.406214881685,0.0,0.0,0.0,2019-03-17T21:16:58.314425,5,EyesClosed
1625.1953393453766,4789.822374561117,-5364.686890207158,-6744.90711032237,30276.309582747173,-4620.798482990084,5940.199606442405,4909.82889054166,0.0,0.0,0.0,2019-03-17T21:16:58.320053,5,EyesClosed
1527.92054747588,4694.179260036857,-5524.591270040425,-6907.426644256908,30073.80277798209,-5118.303611076309,5798.891877995954,4706.852699143016,0.0,0.0,0.0,2019-03-17T21:16:58.327348,5,EyesClosed
2000.5034804944373,5172.707757080527,-5054.467028911952,-6451.786333535473,30412.54346520227,-5458.474809941627,6234.505025685433,5076.058814055778,0.0,0.0,0.0,2019-03-17T21:16:58.328012,5,EyesClosed
2148.6508427442127,5324.6996193766145,-4836.67163093944,-6235.6449646526535,30672.024866583928,-5022.593441318684,6434.888414727261,5322.9561833091,-0.018000000000000002,1.004,0.28200000000000003,2019-03-17T21:16:58.335525,5,EyesClosed
1692.2729244557531,4857.123477116046,-5281.069014199855,-6664.217312838711,30376.378342673583,-4650.34748916,6025.5609185172225,4983.053205377246,0.0,0.0,0.0,2019-03-17T21:16:58.336394,5,EyesClosed
1478.6349509519282,4644.603090834987,-5556.934244267255,-6935.61219401505,30089.62781305645,-5048.074429997734,5772.494467794236,4689.798318123618,0.0,0.0,0.0,2019-03-17T21:16:58.343375,5,EyesClosed
1911.811758495779,5094.34254102022,-5148.187893413055,-6537.2370525881115,30349.86917374959,-5484.089909087409,6150.842446189219,4992.507993281841,0.0,0.0,0.0,2019-03-17T21:16:58.344013,5,EyesClosed
2173.215409900595,5355.34386102484,-4833.631793693518,-6225.787845347863,30659.887869344697,-5166.941007011057,6444.812589265417,5313.344933193318,0.0,0.0,0.0,2019-03-17T21:16:58.351551,5,EyesClosed
1777.2766086192858,4934.549919909229,-5200.692141138571,-6580.174753686757,30434.671692213025,-4706.562126465097,6104.5072799333675,5053.528255644829,0.0,0.0,0.0,2019-03-17T21:16:58.352263,5,EyesClosed
1475.8409828950148,4623.078360924525,-5562.2539594476175,-6935.008696914756,30098.501455605205,-4975.230094817888,5767.33121482506,4700.92948686236,0.0,0.0,0.0,2019-03-17T21:16:58.359247,5,EyesClosed
1835.3687924586288,4991.546868270262,-5245.507388771462,-6624.699428641728,30277.65068741449,-5491.46598475766,6063.134200946593,4916.8026348117155,0.0,0.0,0.0,2019-03-17T21:16:58.359958,5,EyesClosed
2198.048197990441,5354.539198224449,-4836.67163093944,-6218.903508055629,30642.29704645837,-5292.200182938598,6443.985574720571,5309.1428052357205,0.0,0.0,0.0,2019-03-17T21:16:58.365950,5,EyesClosed
1890.0858628852204,5039.737229315905,-5086.653540927594,-6471.56762737842,30510.198236727505,-4766.643615560963,6201.8267752917745,5150.065439947301,0.0,0.0,0.0,2019-03-17T21:16:58.366597,5,EyesClosed
1496.2034220937994,4638.501064598688,-5447.455399925161,-6904.118586077522,30132.900790321924,-4905.671466072973,5792.454575592826,4744.113057150013,-0.014,1.004,0.28200000000000003,2019-03-17T21:16:58.372699,5,EyesClosed
1739.882140145557,4885.934875718936,-5239.60652823526,-6720.051970488068,30204.716945256823,-5484.492240487604,5967.871066078075,4839.510302485264,0.0,0.0,0.0,2019-03-17T21:16:58.373344,5,EyesClosed
2181.507907093514,5325.370171710274,-4770.286949907178,-6255.403906751145,30607.16010417463,-5430.937460772689,6406.233478335557,5264.506371558473,0.0,0.0,0.0,2019-03-17T21:16:58.379923,5,EyesClosed
1988.3664832552056,5124.91972743508,-4915.528585377763,-6385.31224552539,30583.08727539626,-4875.854238969593,6279.230866340503,5218.975868103012,0.0,0.0,0.0,2019-03-17T21:16:58.387500,5,EyesClosed
1519.53864330514,4650.794524049106,-5415.291239653974,-6872.133239761978,30175.391456531463,-4884.794936751716,5821.735360829278,4782.356891913044,0.0,0.0,0.0,2019-03-17T21:16:58.388160,5,EyesClosed
1656.018394949245,4787.609551860041,-5341.441075973639,-6800.652360993906,30150.357502741517,-5460.978205320622,5892.500983774779,4773.147973197458,0.0,0.0,0.0,2019-03-17T21:16:58.395748,5,EyesClosed
2154.1717236246736,5285.85228751329,-4821.763017387751,-6287.188087366591,30564.401217031627,-5536.772970768568,6369.68837615113,5220.2722692814195,0.0,0.0,0.0,2019-03-17T21:16:58.396572,5,EyesClosed
2092.123281016741,5214.684333167593,-4822.947659843881,-6282.494221030977,30648.421424439126,-4985.958932156436,6364.346309226312,5291.797851538402,0.0,0.0,0.0,2019-03-17T21:16:58.402096,5,EyesClosed
1591.533612195684,4712.2394695567455,-5336.166064282187,-6780.334625284032,30250.247448712285,-4852.362555547065,5889.997588395785,4859.6268724950405,0.0,0.0,0.0,2019-03-17T21:16:58.402919,5,EyesClosed
1602.9106501234353,4717.246260314734,-5383.618817760804,-6832.972983476279,30129.43626993135,-5390.704320753136,5849.049192553663,4745.364754839511,0.0,0.0,0.0,2019-03-17T21:16:58.410377,5,EyesClosed
2094.179641506629,5208.895231353668,-4883.431480339942,-6347.135465995725,30502.37512616815,-5625.01765787812,6314.412512113156,5153.462905104507,-0.012,1.008,0.28,2019-03-17T21:16:58.411024,5,EyesClosed
2121.582880208836,5238.13131310121,-4790.76114782824,-6251.067668326816,30652.087110529796,-5158.939082496057,6403.7524347010185,5298.704540575092,0.0,0.0,0.0,2019-03-17T21:16:58.418274,5,EyesClosed
1653.0679646811445,4758.306414879134,-5262.941749446601,-6709.948981994269,30307.557321495693,-4874.736651746828,5968.3851562005475,4919.373085424076,0.0,0.0,0.0,2019-03-17T21:16:58.419100,5,EyesClosed
1549.0652977306006,4653.432029894832,-5437.665335853736,-6883.711443389827,30093.405257869395,-5336.568395682382,5806.223250177294,4702.225888040768,0.0,0.0,0.0,2019-03-17T21:16:58.425510,5,EyesClosed
2028.4431610635713,5142.935233466057,-4971.206780815934,-6426.662972767708,30417.25968328234,-5688.630722597924,6240.249424010447,5067.5427994183065,0.0,0.0,0.0,2019-03-17T21:16:58.426179,5,EyesClosed
2200.5292416249804,5311.132110492243,-4740.514426292709,-6192.4390426205455,30666.92866884812,-5283.639464812215,6452.747458547051,5326.554814166405,0.0,0.0,0.0,2019-03-17T21:16:58.433015,5,EyesClosed
1743.0337361137554,4847.936910144915,-5184.598885130749,-6616.608097148907,30365.157766957018,-4901.894021260026,6045.05163968225,4991.166888614523,0.0,0.0,0.0,2019-03-17T21:16:58.433666,5,EyesClosed
1528.0770096870674,4616.372837587934,-5471.9752635926325,-6898.485946474785,30077.08848441702,-5268.484982071517,5783.938560955354,4691.161774535391,0.0,0.0,0.0,2019-03-17T21:16:58.440148,5,EyesClosed
1945.6075961122033,5038.843159537692,-5080.663273413572,-6513.723017421129,30327.495077549826,-5723.432388714837,6148.830789188241,4980.728623953894,0.0,0.0,0.0,2019-03-17T21:16:58.447779,5,EyesClosed
2231.665221651223,5335.115532292787,-4737.385182068966,-6166.8462952192185,30659.73140713351,-5415.246536165063,6471.746441334062,5331.159273524198,0.0,0.0,0.0,2019-03-17T21:16:58.448748,5,EyesClosed
1845.8070571192573,4943.3341554801655,-5096.175384065555,-6507.2410115290895,30440.30433181576,-4938.662640889006,6145.880358920141,5086.586485694228,-0.012,1.004,0.278,2019-03-17T21:16:58.455087,5,EyesClosed
1492.8283086810482,4590.802441931062,-5500.473737773149,-6900.922286620413,30070.539423291615,-5200.781548116392,5774.372014328482,4700.415396739888,0.0,0.0,0.0,2019-03-17T21:16:58.455987,5,EyesClosed
1838.1627605155422,4945.658736903517,-5193.338417212774,-6599.464309151686,30246.47000389934,-5726.069894560564,6064.095325958172,4907.839585285137,0.0,0.0,0.0,2019-03-17T21:16:58.462534,5,EyesClosed
2211.9509830416423,5306.326485434352,-4775.159630198435,-6186.225257661969,30619.6770810696,-5567.752488583624,6450.758153290529,5298.19045045262,0.0,0.0,0.0,2019-03-17T21:16:58.463309,5,EyesClosed
1922.3841336231392,5005.092025410178,-5024.202766919466,-6421.231498865069,30497.345983665706,-5044.654613096072,6219.149377244637,5153.149980682133,0.0,0.0,0.0,2019-03-17T21:16:58.470530,5,EyesClosed
1517.482282815252,4595.786880944595,-5473.249313026585,-6861.806733823626,30114.080621490553,-5149.707812036016,5804.479814109781,4744.448333316843,0.0,0.0,0.0,2019-03-17T21:16:58.471444,5,EyesClosed
1750.7674396952916,4830.7484186587835,-5293.004845738989,-6690.65942652934,30171.949287885345,-5716.928031078342,5970.553275412712,4827.105084312569,0.0,0.0,0.0,2019-03-17T21:16:58.477720,5,EyesClosed
2203.3902649152596,5281.627807811237,-4808.1508050144685,-6217.271830710391,30569.34095255625,-5693.950437778287,6416.135301129259,5254.425734809129,0.0,0.0,0.0,2019-03-17T21:16:58.478454,5,EyesClosed
2032.8241029768114,5101.092767845723,-4931.867710574593,-6332.048038488393,30555.684036694056,-5148.009079457412,6305.337703864301,5221.903946626657,0.0,0.0,0.0,2019-03-17T21:16:58.485352,5,EyesClosed
1577.8766963334915,4637.294070398101,-5420.275678667507,-6809.146023886922,30166.651924449438,-5110.569907494772,5858.9733670918195,4800.327694455111,0.0,0.0,0.0,2019-03-17T21:16:58.485990,5,EyesClosed
1687.310837186675,4744.671850761396,-5377.628550246782,-6772.1985903023,30116.874589547468,-5685.300312674083,5904.056835658173,4766.08482194958,-0.004,0.998,0.276,2019-03-17T21:16:58.493223,5,EyesClosed
2192.549668854436,5244.255691081964,-4868.813439466172,-6272.637101726187,30516.836704830734,-5805.709160054822,6371.364756985278,5200.155699271643,0.0,0.0,0.0,2019-03-17T21:16:58.493857,5,EyesClosed
2148.0696973883746,5194.232486990987,-4851.267320068756,-6245.211511279525,30616.927816501597,-5263.589950035805,6391.570733972876,5293.340121905819,0.0,0.0,0.0,2019-03-17T21:16:58.500316,5,EyesClosed
1651.011604191256,4692.882858858449,-5353.063983090399,-6734.513549150652,30239.31744567364,-5083.926628104046,5926.587394069123,4878.089413415124,0.0,0.0,0.0,2019-03-17T21:16:58.501315,5,EyesClosed
1626.9611271573458,4666.999538779204,-5449.757629604057,-6828.055599696112,30083.41402809787,-5618.245079308162,5844.131808773495,4732.043115144148,0.0,0.0,0.0,2019-03-17T21:16:58.507525,5,EyesClosed
2118.677153429646,5162.872989520191,-4960.567350455207,-6344.475608405543,30444.953494662466,-5880.386338280004,6301.515555562443,5137.6825735190605,0.0,0.0,0.0,2019-03-17T21:16:58.514677,5,EyesClosed
2193.0637589769076,5230.554071730861,-4832.022468092736,-6206.5876968607545,30623.745098560466,-5413.681914053192,6420.136263386758,5323.7608461094915,0.0,0.0,0.0,2019-03-17T21:16:58.515333,5,EyesClosed
1716.4128084674846,4737.3181268356,-5312.875546559757,-6665.93839716177,30276.577803680637,-5115.576698252761,5977.504667938312,4951.358431739621,0.0,0.0,0.0,2019-03-17T21:16:58.522852,5,EyesClosed
1597.5015279652512,4612.349523585978,-5504.295886075007,-6851.793152307649,30055.47434752874,-5551.189845942241,5804.3233518985935,4731.50667327722,0.0,0.0,0.0,2019-03-17T21:16:58.523485,5,EyesClosed
2055.2429026654845,5070.470877941952,-5064.994700550402,-6422.259679110012,30351.411444117006,-5941.652469832,6211.482728896467,5069.979139563935,0.0,0.0,0.0,2019-03-17T21:16:58.532538,5,EyesClosed
2258.1967423196725,5271.323653617341,-4806.51912766923,-6163.247664361914,30623.00749099344,-5555.123752966375,6448.590034078364,5355.656785447215,-0.014,1.01,0.276,2019-03-17T21:16:58.533189,5,EyesClosed
1811.3406671691737,4816.219784762834,-5234.2421095659865,-6575.190314673223,30333.95473169741,-5153.932291738069,6052.271253141314,5039.401953149075,0.0,0.0,0.0,2019-03-17T21:16:58.538646,5,EyesClosed
1565.672643860894,4568.674214920308,-5540.304546392506,-6876.357719464031,30032.22853329522,-5493.209420825175,5767.487677036247,4727.997449397737,0.0,0.0,0.0,2019-03-17T21:16:58.539406,5,EyesClosed
1976.6541691606249,4982.069728621213,-5170.718451824004,-6513.633610443308,30269.335838477116,-5973.146077769527,6112.084521303716,4998.632371262595,0.0,0.0,0.0,2019-03-17T21:16:58.545530,5,EyesClosed
2294.495975315091,5291.976665494045,-4806.183851502401,-6154.038745646328,30617.330147901794,-5698.17491748034,6449.417048623211,5360.238893060553,0.0,0.0,0.0,2019-03-17T21:16:58.546200,5,EyesClosed
1932.2189011834744,4930.705419862917,-5126.461997802496,-6459.095353972359,30437.39860503657,-5196.445309692062,6155.648071247109,5150.534826580862,0.0,0.0,0.0,2019-03-17T21:16:58.553541,5,EyesClosed
1580.6259609014942,4577.838430146984,-5525.932374707744,-6851.435524396364,30079.055437929088,-5413.950134986656,5785.458479578314,4772.298606908155,0.0,0.0,0.0,2019-03-17T21:16:58.554237,5,EyesClosed
1900.23355486793,4895.59082932363,-5256.012708665456,-6589.786003802539,30222.866561754534,-5959.913845051986,6037.9437849454625,4940.875463590081,0.0,0.0,0.0,2019-03-17T21:16:58.560675,5,EyesClosed
2298.720455017144,5290.233229426531,-4818.81258711965,-6164.074678906761,30606.422496607604,-5832.039515023174,6442.46565609761,5340.569357939882,0.0,0.0,0.0,2019-03-17T21:16:58.561316,5,EyesClosed
2032.935861699088,5015.910269726547,-5040.8324647942145,-6377.377376243756,30504.65500410259,-5304.985380767033,6229.632345394176,5214.617277934227,0.0,0.0,0.0,2019-03-17T21:16:58.567272,5,EyesClosed
1605.5928594580723,4585.2145058172355,-5508.0733308879535,-6833.9564602323135,30115.600540113515,-5386.412785817717,5793.326293626582,4792.549287384664,-0.018000000000000002,1.01,0.276,2019-03-17T21:16:58.575067,5,EyesClosed
1798.331951896185,4787.587200115586,-5372.375890299784,-6704.428101113809,30145.30600849462,-5969.301577723215,5922.966411467363,4839.912633885459,0.0,0.0,0.0,2019-03-17T21:16:58.575958,5,EyesClosed
2242.34935550086,5232.431618265106,-4899.927067747959,-6241.702287400042,30529.130164281152,-5990.826307633675,6353.729230610041,5254.738659231503,0.0,0.0,0.0,2019-03-17T21:16:58.583613,5,EyesClosed
2090.4916036715035,5067.520447673852,-4996.821879961715,-6331.10926522127,30529.174867770063,-5442.9179958007335,6257.281453285391,5246.669679483138,0.0,0.0,0.0,2019-03-17T21:16:58.584522,5,EyesClosed
1624.4130282894407,4595.272790822124,-5484.715757932157,-6809.213079120288,30141.908543337413,-5365.715070452103,5804.926848998886,4829.452017480376,0.0,0.0,0.0,2019-03-17T21:16:58.590640,5,EyesClosed
1715.6975526449148,4684.746823876718,-5459.100658786376,-6788.157735843389,30081.916461219367,-5920.865347488564,5827.05507600964,4783.116851224524,0.0,0.0,0.0,2019-03-17T21:16:58.591303,5,EyesClosed
2222.0763232798963,5193.070196279311,-4944.2729287472885,-6281.890723930684,30487.13123644963,-6058.887369500086,6298.609828783254,5222.574498960316,0.0,0.0,0.0,2019-03-17T21:16:58.598440,5,EyesClosed
2215.9742970435973,5178.273341449898,-4891.053425199202,-6225.743141858953,30609.909368742632,-5520.813825227478,6339.200596714091,5343.72095390808,0.0,0.0,0.0,2019-03-17T21:16:58.599341,5,EyesClosed
1702.62178213856,4658.01413750817,-5411.513794841027,-6726.846900802481,30211.55657906015,-5334.556738681405,5855.620605423523,4914.947440021925,0.0,0.0,0.0,2019-03-17T21:16:58.607239,5,EyesClosed
1650.7880867467031,4610.203756118269,-5526.8040927415,-6839.9467277463355,30041.549210733083,-5848.043364053174,5745.918243636876,4746.214121128813,0.0,0.0,0.0,2019-03-17T21:16:58.607880,5,EyesClosed
2137.2961565609166,5101.383340523642,-5046.174531719033,-6366.983815072038,30396.405505705538,-6136.045591359805,6188.5051355964115,5133.860425217203,-0.016,1.002,0.278,2019-03-17T21:16:58.613279,5,EyesClosed
2240.2035880331505,5207.263554008431,-4876.72595700335,-6192.7296152984645,30608.992947219962,-5671.553989834069,6346.174340984147,5348.683041177159,0.0,0.0,0.0,2019-03-17T21:16:58.613813,5,EyesClosed
1776.8072219857243,4736.759333224218,-5327.068904288877,-6631.449655467231,30293.922757377954,-5330.354610723807,5932.398847627503,5000.286400352287,0.0,0.0,0.0,2019-03-17T21:16:58.620458,5,EyesClosed
1612.6783624504046,4562.751002639652,-5563.215084459196,-6869.920417060902,30038.889353142902,-5767.1076973805075,5714.648153143901,4735.50763553472,0.0,0.0,0.0,2019-03-17T21:16:58.621084,5,EyesClosed
2068.229266194018,5022.861662252148,-5132.251099616421,-6453.775638791995,30328.47855430586,-6172.300120866314,6110.20697476947,5060.9043313150805,0.0,0.0,0.0,2019-03-17T21:16:58.627388,5,EyesClosed
2285.331760088415,5238.332478801308,-4854.664785225962,-6178.580961058255,30611.161066432127,-5811.00652349073,6361.865265591773,5355.030936602466,0.0,0.0,0.0,2019-03-17T21:16:58.635302,5,EyesClosed
1853.8313333787125,4800.61826713303,-5255.923301687634,-6563.656814534284,30348.282199893263,-5378.8802479362785,5989.5746099441785,5062.625415638139,0.0,0.0,0.0,2019-03-17T21:16:58.636195,5,EyesClosed
1558.1177542350001,4504.390597866845,-5608.142090814364,-6906.152594822955,30014.36948947543,-5709.7978245971,5664.222617652728,4708.17145206588,0.0,0.0,0.0,2019-03-17T21:16:58.642336,5,EyesClosed
1963.3325294652618,4917.428483656465,-5238.13131310121,-6542.824988701938,30251.11916674604,-6188.840411763241,6008.1265578420835,4970.491524993364,0.0,0.0,0.0,2019-03-17T21:16:58.642994,5,EyesClosed
2296.664094527256,5237.0360776229,-4865.77360222025,-6170.89196096563,30595.157217402128,-5946.122818723062,6346.800189828896,5331.025163057467,0.0,0.0,0.0,2019-03-17T21:16:58.650109,5,EyesClosed
1944.355898422706,4878.357634348587,-5174.115916981211,-6464.9738627641045,30413.10225881365,-5443.499141156572,6056.629843310099,5127.378419325164,-0.014,1.002,0.28600000000000003,2019-03-17T21:16:58.650901,5,EyesClosed
1558.7883065686592,4502.4459960992335,-5592.786442373567,-6876.156553763933,30041.169231077343,-5630.382076547394,5668.871780499432,4735.686449490363,0.0,0.0,0.0,2019-03-17T21:16:58.658026,5,EyesClosed
1855.2171415349414,4808.866060837038,-5340.211730028597,-6635.003582835625,30166.093130838053,-6175.608179045699,5899.430024555925,4886.739538519328,0.0,0.0,0.0,2019-03-17T21:16:58.658746,5,EyesClosed
2269.953759903164,5222.328629771308,-4889.734672276339,-6195.590638588744,30553.04653084833,-6068.565674849234,6309.763349266452,5296.089386473821,0.0,0.0,0.0,2019-03-17T21:16:58.666134,5,EyesClosed
2026.8338354627892,4969.709213937427,-5082.451412969996,-6382.764146657485,30477.810559011767,-5522.937240950732,6129.273012789848,5201.653266150149,0.0,0.0,0.0,2019-03-17T21:16:58.666860,5,EyesClosed
1584.2022400143433,4523.814263798507,-5560.421116402283,-6852.061373241112,30080.24008038522,-5566.277273449573,5687.177859208329,4777.193638943868,0.0,0.0,0.0,2019-03-17T21:16:58.672749,5,EyesClosed
1769.1629253820092,4706.919754376382,-5433.284393940496,-6736.793427085094,30096.57920558205,-6133.698658191998,5806.178546688384,4814.14107252849,0.0,0.0,0.0,2019-03-17T21:16:58.673391,5,EyesClosed
2243.7128119126337,5182.184896729576,-4924.469283159886,-6245.345621746257,30505.526722136347,-6163.627644017654,6263.182313821592,5250.625938251726,0.0,0.0,0.0,2019-03-17T21:16:58.680753,5,EyesClosed
2111.4351882261262,5051.360136432664,-4993.491470037874,-6306.499994575977,30535.969798084476,-5616.2557740516395,6195.791804288841,5265.355737847774,0.0,0.0,0.0,2019-03-17T21:16:58.681395,5,EyesClosed
1621.8202259326251,4549.8763978333955,-5500.809013939978,-6800.317084827076,30130.598560643026,-5524.278345618051,5724.929955593343,4833.922366371437,0.0,0.0,0.0,2019-03-17T21:16:58.687749,5,EyesClosed
1685.723863330348,4610.740197985197,-5502.150118607297,-6805.770910474171,30041.616265966448,-6074.846515041175,5720.437254957826,4760.2733683912,-0.012,1.002,0.29,2019-03-17T21:16:58.695739,5,EyesClosed
2183.8771920057766,5111.776901695359,-4995.816051461226,-6311.462081845055,30427.78735492079,-6249.033659581382,6185.197077417026,5184.017739774912,0.0,0.0,0.0,2019-03-17T21:16:58.696397,5,EyesClosed
2182.6254943162794,5106.546593492817,-4938.59558565564,-6247.5584444473325,30550.00669360241,-5735.390571998426,6234.750894874442,5307.354665679296,0.0,0.0,0.0,2019-03-17T21:16:58.702200,5,EyesClosed
1681.9911220063118,4612.193061374791,-5431.02686775051,-6725.572851368529,30179.25830832223,-5495.221077826152,5774.819049217588,4909.381855652554,0.0,0.0,0.0,2019-03-17T21:16:58.702998,5,EyesClosed
1605.1234728245108,4537.538234894066,-5565.830238560467,-6860.398573922941,29992.643593864872,-5989.060519821706,5646.631794766402,4724.354115051522,0.0,0.0,0.0,2019-03-17T21:16:58.710065,5,EyesClosed
2099.186432264618,5035.132769958112,-5080.037424568824,-6381.69126292363,30343.09659517963,-6292.351340335767,6093.599628639177,5110.279334816853,0.0,0.0,0.0,2019-03-17T21:16:58.710834,5,EyesClosed
2230.8158553619214,5168.237408189465,-4887.901829231004,-6182.425461104568,30565.205879832018,-5843.371849462014,6267.272683056914,5341.910462607201,0.0,0.0,0.0,2019-03-17T21:16:58.718124,5,EyesClosed
1769.2299806153753,4700.9071351179045,-5339.071791061377,-6613.88118432536,30248.638123111505,-5481.3629962638615,5848.825675109109,5000.107586396645,0.0,0.0,0.0,2019-03-17T21:16:58.718794,5,EyesClosed
1586.6832836488825,4512.392522381845,-5589.321921982994,-6860.778553578682,29979.50076812515,-5879.380509779515,5611.830128649489,4728.466836031298,0.0,0.0,0.0,2019-03-17T21:16:58.725246,5,EyesClosed
2022.5870040162808,4951.6713561619945,-5179.726204839493,-6464.2139034526235,30247.07350099963,-6312.222041156536,5982.913790096497,5032.85289202367,0.0,0.0,0.0,2019-03-17T21:16:58.725879,5,EyesClosed
2251.021832349519,5183.660111863627,-4894.003855467303,-6181.330225626258,30526.649120646613,-5995.90015362503,6235.622612908199,5324.833729843346,-0.01,1.006,0.28600000000000003,2019-03-17T21:16:58.733065,5,EyesClosed
1848.0198798203326,4768.163534183924,-5266.272159370442,-6538.712267722162,30291.03938234322,-5539.186959169741,5888.723538961833,5060.390241192608,0.0,0.0,0.0,2019-03-17T21:16:58.733746,5,EyesClosed
1541.443352871341,4452.623957708354,-5628.057495124041,-6891.378091737997,29955.271477135597,-5836.733381358788,5555.0343459885535,4703.231716541257,0.0,0.0,0.0,2019-03-17T21:16:58.740893,5,EyesClosed
1930.877796516156,4853.033107880725,-5271.457764084073,-6542.310898579467,30179.63828797797,-6318.659343559664,5887.538896505702,4952.7218881513945,0.0,0.0,0.0,2019-03-17T21:16:58.741793,5,EyesClosed
2268.344434302382,5193.204306746043,-4881.6433407835175,-6159.112591637682,30532.170001527073,-6107.480061945923,6243.266909511914,5320.586898396838,0.0,0.0,0.0,2019-03-17T21:16:58.747972,5,EyesClosed
1935.6610698295917,4857.034070138225,-5171.634873346672,-6431.043914680948,30373.405560661027,-5587.444375448749,5976.7223568823765,5139.649527031127,0.0,0.0,0.0,2019-03-17T21:16:58.748820,5,EyesClosed
1548.9311872638689,4471.98056840665,-5594.999265074643,-6846.540492360651,30000.60081489096,-5733.982412097742,5581.67762537928,4744.738905994762,0.0,0.0,0.0,2019-03-17T21:16:58.754613,5,EyesClosed
1821.9577457854446,4749.097496163547,-5371.213599588108,-6633.1483880458345,30100.177836439354,-6287.679825744609,5789.951180213831,4869.282826099733,0.0,0.0,0.0,2019-03-17T21:16:58.762499,5,EyesClosed
2235.800294375455,5161.7554022974255,-4927.106789005612,-6200.150394457626,30474.41309385456,-6227.911261071117,6197.55759210081,5268.261464626964,0.0,0.0,0.0,2019-03-17T21:16:58.763178,5,EyesClosed
2025.3139168398282,4948.4974084493415,-5082.764337392371,-6348.342460196312,30427.899113643067,-5670.190533422296,6048.650270539555,5207.129443541699,0.0,0.0,0.0,2019-03-17T21:16:58.770990,5,EyesClosed
1560.665853102905,4479.423699310267,-5573.541590397548,-6831.564823575595,30023.153725046366,-5691.4470423992925,5588.450203949238,4772.723290052806,-0.012,1.01,0.276,2019-03-17T21:16:58.771651,5,EyesClosed
1716.6363259120378,4639.998631477193,-5474.3221967604395,-6741.599052142984,30023.734870402204,-6264.434011511089,5683.735690562212,4785.687301836884,0.0,0.0,0.0,2019-03-17T21:16:58.779049,5,EyesClosed
2200.5962968583462,5126.35023908022,-4963.473077234397,-6244.7421246459635,30434.984616635396,-6322.526195350432,6157.235045103436,5230.196443819576,0.0,0.0,0.0,2019-03-17T21:16:58.779899,5,EyesClosed
2101.153385776685,5025.1862436755,-5003.303885853754,-6274.380537793701,30481.476245102436,-5778.149459141428,6120.265259774359,5276.062223441866,0.0,0.0,0.0,2019-03-17T21:16:58.785241,5,EyesClosed
1611.98545837229,4532.397333669345,-5511.739016978624,-6761.313290752565,30082.966993208767,-5646.475332555215,5651.392716335383,4854.262453825767,0.0,0.0,0.0,2019-03-17T21:16:58.786342,5,EyesClosed
1629.0621911361447,4550.815171100518,-5560.041136746542,-6807.536698286141,29959.473605093197,-6192.528449598366,5603.0458930785535,4740.425019314887,0.0,0.0,0.0,2019-03-17T21:16:58.793232,5,EyesClosed
2136.245624571517,5059.76439234786,-5047.985023019913,-6305.7847387534075,30344.594162058136,-6393.940018885139,6066.956349248451,5159.900207507635,0.0,0.0,0.0,2019-03-17T21:16:58.794187,5,EyesClosed
2160.832543472355,5084.328959504242,-4961.0590888332235,-6213.963772531006,30489.36641089516,-5902.4698618018465,6138.839559416719,5304.04660749991,0.0,0.0,0.0,2019-03-17T21:16:58.801439,5,EyesClosed
1660.466392095851,4582.442889504778,-5456.8878360853005,-6693.475746330709,30118.282749448153,-5649.693983756779,5677.656016070368,4903.235125927345,0.0,0.0,0.0,2019-03-17T21:16:58.802073,5,EyesClosed
1564.2644839602094,4483.223495867669,-5618.021561863609,-6854.542416875651,29910.657395202805,-6126.5460999663,5522.490206061627,4695.050978070614,0.0,0.0,0.0,2019-03-17T21:16:58.807887,5,EyesClosed
2056.6063590772583,4975.297150051254,-5137.950794452524,-6385.580466458853,30252.773195835736,-6451.763981791018,5959.332699696148,5072.795459365304,-0.012,1.01,0.28,2019-03-17T21:16:58.808544,5,EyesClosed
2209.0676080069074,5128.138378636644,-4915.3944749110315,-6164.275844606858,30494.216739441963,-6024.644496994555,6147.422629287556,5320.788064096936,0.0,0.0,0.0,2019-03-17T21:16:58.814933,5,EyesClosed
1756.3553758091184,4674.68853887183,-5340.479950962062,-6577.939579241226,30194.03281140719,-5634.718314971723,5739.302127278105,4993.51382178233,0.0,0.0,0.0,2019-03-17T21:16:58.822589,5,EyesClosed
1527.898195731425,4441.693954669709,-5627.968088146221,-6860.4879809007625,29898.408639241297,-6022.319915571203,5469.829496124923,4687.026701811159,0.0,0.0,0.0,2019-03-17T21:16:58.823403,5,EyesClosed
1952.9166165490888,4872.814401723672,-5231.112865342244,-6470.695909344663,30153.97848534328,-6468.013700010026,5840.15319826045,4977.532324496785,0.0,0.0,0.0,2019-03-17T21:16:58.830928,5,EyesClosed
2239.756553144044,5158.670861562594,-4891.925143232959,-6129.541233723311,30484.51608234836,-6131.888166891118,6155.536312524833,5324.38669495424,0.0,0.0,0.0,2019-03-17T21:16:58.831567,5,EyesClosed
1847.7293071424137,4766.218932416312,-5248.144894617188,-6466.13615347578,30264.619620397047,-5643.346088331472,5835.816959836121,5083.367834492664,0.0,0.0,0.0,2019-03-17T21:16:58.837459,5,EyesClosed
1513.1460443909223,4430.205158019681,-5630.359724802938,-6846.696954571838,29906.67878468976,-5910.270620616749,5497.3891970383165,4711.4124550118995,0.0,0.0,0.0,2019-03-17T21:16:58.838115,5,EyesClosed
1856.4017839910728,4775.405499387443,-5329.058209545399,-6555.744296997106,30071.813472725567,-6433.971993204594,5820.215442206317,4907.63841958504,0.0,0.0,0.0,2019-03-17T21:16:58.845459,5,EyesClosed
2220.891680823765,5144.276338133376,-4908.085454474146,-6140.3147745507695,30443.16535510604,-6235.287336741369,6276.7274709615085,5301.81143305438,0.0,0.0,0.0,2019-03-17T21:16:58.846102,5,EyesClosed
1906.42498808205,4827.7532849017725,-5162.180085442077,-6387.525068226465,30314.128734365553,-5707.830871085032,6062.217779423926,5150.4230678585855,-0.012,1.002,0.28200000000000003,2019-03-17T21:16:58.853468,5,EyesClosed
1480.2442765527103,4405.327666440924,-5628.415123035326,-6848.3956871504415,29907.461095745697,-5852.021974566219,5621.553137487547,4716.866280658994,0.0,0.0,0.0,2019-03-17T21:16:58.854112,5,EyesClosed
1719.430293968951,4657.187122963324,-5432.345620673374,-6661.244530826156,29981.043038492568,-6413.542498772443,5802.468157108803,4812.531746927709,0.0,0.0,0.0,2019-03-17T21:16:58.860467,5,EyesClosed
2173.997720956531,5108.8041196828035,-4937.366239710598,-6171.897789466118,30396.91959582801,-6345.190864228113,6261.796505665363,5260.147781389687,0.0,0.0,0.0,2019-03-17T21:16:58.861166,5,EyesClosed
1976.743576138446,4900.374102637065,-5074.33772973272,-6306.4329393426115,30362.073226222186,-5790.509973825214,6130.368248268158,5213.231469777998,0.0,0.0,0.0,2019-03-17T21:16:58.868151,5,EyesClosed
1515.53768104764,4430.562785930966,-5565.1820379712635,-6795.913791169381,29953.908020723826,-5773.679110250368,5665.988405464698,4776.076051721103,0.0,0.0,0.0,2019-03-17T21:16:58.868934,5,EyesClosed
1643.9484529433792,4557.587749670476,-5497.679769716236,-6742.940156810303,29918.34639529543,-6341.413419415167,5719.073798546052,4756.026536944692,0.0,0.0,0.0,2019-03-17T21:16:58.875166,5,EyesClosed
2136.9161769051766,5054.377621934131,-4979.6110367311285,-6238.394229220657,30328.38914732804,-6425.7689029894955,6196.641170578143,5200.714492883026,0.0,0.0,0.0,2019-03-17T21:16:58.883105,5,EyesClosed
2077.549943631881,4995.950161927958,-4979.789850686771,-6230.973450061495,30410.196532034464,-5875.021919610729,6194.94243799954,5276.464554842062,0.0,0.0,0.0,2019-03-17T21:16:58.883862,5,EyesClosed
1578.3907864559635,4492.4100628388005,-5489.454327756683,-6731.183139226811,30009.22858825071,-5719.721999135256,5713.776435110144,4847.601633978085,0.0,0.0,0.0,2019-03-17T21:16:58.889534,5,EyesClosed
1565.02444327169,4480.809507466496,-5560.912854780299,-6810.531832043152,29860.56713587846,-6257.95200561905,5641.312079586039,4707.210327054301,-0.01,1.0,0.28200000000000003,2019-03-17T21:16:58.890269,5,EyesClosed
2056.8969317551773,4975.341853540165,-5057.395107435597,-6323.621430828743,30228.74507054628,-6491.8630113438385,6096.6394658850995,5113.095654618222,0.0,0.0,0.0,2019-03-17T21:16:58.897851,5,EyesClosed
2116.1290545617408,5026.639107065094,-4934.8181408426935,-6196.060025222305,30394.483255682382,-6004.818499662698,6199.748063057431,5281.493697344506,0.0,0.0,0.0,2019-03-17T21:16:58.898496,5,EyesClosed
1636.2818045952088,4542.142694251859,-5404.964733715622,-6650.180417320778,30048.254734069676,-5703.606391382979,5759.1281246099625,4904.308009661199,0.0,0.0,0.0,2019-03-17T21:16:58.905594,5,EyesClosed
1518.510463060196,4422.538509671511,-5582.661102135313,-6825.932183972858,29833.90150474328,-6148.674326977054,5596.58623893097,4689.97713207926,0.0,0.0,0.0,2019-03-17T21:16:58.906543,5,EyesClosed
1986.3771779986835,4892.550992077708,-5130.77588448237,-6381.668911179175,30153.576153943082,-6512.00193309807,6021.202328348438,5043.358211917664,0.0,0.0,0.0,2019-03-17T21:16:58.912688,5,EyesClosed
2161.8160202283884,5066.648729640095,-4892.528640333252,-6142.460542018479,30409.347165745163,-6108.329428235224,6243.6245374231985,5310.394502925218,0.0,0.0,0.0,2019-03-17T21:16:58.913130,5,EyesClosed
1721.687820158937,4617.982163188715,-5300.3362179203305,-6536.253575832078,30129.525676909172,-5682.618103339446,5864.807172394654,5012.46810108043,0.0,0.0,0.0,2019-03-17T21:16:58.920090,5,EyesClosed
1449.4659244377524,4338.317136563914,-5626.694038712268,-6862.387879179464,29797.55756825895,-6059.759087533843,5559.884674535355,4677.929541817849,0.0,0.0,0.0,2019-03-17T21:16:58.920515,5,EyesClosed
1845.784705374802,4741.676717004385,-5254.425734809129,-6504.871726616827,30027.17703904832,-6534.353677553378,5904.392111825003,4943.043582802246,0.0,0.0,0.0,2019-03-17T21:16:58.928128,5,EyesClosed
2149.7013747336123,5049.102610242679,-4888.035939697736,-6142.482893762934,30371.460958893414,-6224.4914441694555,6240.852921110741,5309.746302336014,-0.008,1.004,0.28400000000000003,2019-03-17T21:16:58.928530,5,EyesClosed
1770.7051957494255,4660.919864287361,-5227.93891762959,-6467.8572377988385,30159.991104601755,-5730.18261554034,5919.07720793214,5081.177363536044,0.0,0.0,0.0,2019-03-17T21:16:58.935117,5,EyesClosed
1424.3872671588979,4310.220993783592,-5620.234384564685,-6854.140085475456,29798.362231059342,-5960.964377041385,5554.475552377171,4707.50089973222,0.0,0.0,0.0,2019-03-17T21:16:58.942194,5,EyesClosed
1763.0608991457104,4655.287224684623,-5317.591764639827,-6562.896855222804,29961.3735033719,-6479.077813515403,5829.893747555465,4902.005779982303,0.0,0.0,0.0,2019-03-17T21:16:58.942682,5,EyesClosed
2145.7898194539334,5037.703220570472,-4889.958189720892,-6143.64518447461,30328.836182217146,-6322.526195350432,6215.438987665056,5293.2954184169075,0.0,0.0,0.0,2019-03-17T21:16:58.949951,5,EyesClosed
1875.2890080558072,4763.46966784831,-5113.542689507329,-6356.6796608781415,30219.625558808515,-5777.389499829948,6000.482261238368,5167.812725044814,0.0,0.0,0.0,2019-03-17T21:16:58.950794,5,EyesClosed
1455.769116374149,4341.692249976665,-5573.407479930816,-6810.554183787606,29828.648844796284,-5872.7643934207435,5573.742756097646,4749.164551396912,0.0,0.0,0.0,2019-03-17T21:16:58.958039,5,EyesClosed
1676.0232062367447,4568.383642242389,-5399.309742368429,-6655.187208078767,29882.695362889215,-6429.859272224817,5729.065028317575,4821.763017387751,0.0,0.0,0.0,2019-03-17T21:16:58.958870,5,EyesClosed
2119.8170923968664,5015.105606926156,-4915.953268522414,-6189.667426308087,30276.019010069253,-6413.207222605613,6167.740364997431,5242.780475947914,0.0,0.0,0.0,2019-03-17T21:16:58.965978,5,EyesClosed
1929.581395337748,4817.784406874705,-5039.089028726701,-6306.410587598156,30249.822765567635,-5869.299873030171,6050.0360786957835,5211.55508894385,0.0,0.0,0.0,2019-03-17T21:16:58.966490,5,EyesClosed
1461.7817356326266,4356.511456550534,-5515.04707515801,-6775.439593248319,29861.640019612318,-5797.595476817546,5602.665913422813,4798.47249966532,-0.012,1.002,0.28,2019-03-17T21:16:58.972557,5,EyesClosed
1568.5336671511732,4461.698765957209,-5470.812972880956,-6742.157845754367,29807.906425941757,-6346.487265406521,5638.182835362296,4757.054717189636,0.0,0.0,0.0,2019-03-17T21:16:58.973257,5,EyesClosed
2048.895007240177,4946.306937492721,-4968.323405781199,-6250.486522970978,30195.731543985792,-6473.109897745836,6100.551021164778,5177.312216438319,0.0,0.0,0.0,2019-03-17T21:16:58.980706,5,EyesClosed
2000.414073516616,4898.787128780738,-4947.603338671129,-6224.178519747081,30282.41160898347,-5942.680650076944,6113.291515504303,5265.154572147676,0.0,0.0,0.0,2019-03-17T21:16:58.981622,5,EyesClosed
1502.05957914109,4397.01281750355,-5454.250330239574,-6712.810005284549,29886.53986293553,-5750.299185550116,5642.384963319893,4844.762962432261,0.0,0.0,0.0,2019-03-17T21:16:58.990295,5,EyesClosed
1473.6952154273054,4369.9672067126285,-5551.8603982759005,-6810.196555876321,29726.79194531345,-6258.175523063604,5555.48138087766,4690.848850113017,0.0,0.0,0.0,2019-03-17T21:16:58.991078,5,EyesClosed
1970.261570246407,4873.082622657135,-5052.47772365543,-6326.34834365229,30093.405257869395,-6512.627781942819,6015.726150956888,5092.91202937508,0.0,0.0,0.0,2019-03-17T21:16:58.996576,5,EyesClosed
2047.2409781504846,4949.525588694285,-4902.005779982303,-6179.117402925182,30277.561280436672,-6038.033191923284,6148.540216510322,5287.863944514268,0.0,0.0,0.0,2019-03-17T21:16:58.997445,5,EyesClosed
1571.5288009081842,4467.912550915784,-5366.564436741404,-6629.88503335536,29936.048976904032,-5707.27207747365,5713.7987868546,4924.558690137707,0.0,0.0,0.0,2019-03-17T21:16:59.003814,5,EyesClosed
1419.4028281453643,4317.0159240980065,-5581.051776534531,-6843.835931281559,29690.82798848486,-6135.598556470699,5514.577688524448,4677.728376117751,0.0,0.0,0.0,2019-03-17T21:16:59.011666,5,EyesClosed
1891.1810983635305,4790.80585131715,-5120.315268077286,-6400.109100354803,30007.351041716465,-6501.138985292791,5938.143245952517,5030.32714490022,0.0,0.0,0.0,2019-03-17T21:16:59.012334,5,EyesClosed
2085.149536746685,4983.164964099523,-4856.6317387380295,-6139.063076861272,30273.068579801155,-6113.917364349051,6176.055213934805,5312.942601793123,-0.008,1.006,0.278,2019-03-17T21:16:59.018457,5,EyesClosed
1653.1573716589658,4548.803514099541,-5255.27510109843,-6521.747293680584,30003.32772771451,-5674.035033468608,5803.831613520577,5023.8674907526365,0.0,0.0,0.0,2019-03-17T21:16:59.019110,5,EyesClosed
1387.4398335742753,4277.967426534585,-5572.558113641514,-6833.688239298849,29688.503407061507,-5992.435633234458,5505.346418064406,4700.996542095726,0.0,0.0,0.0,2019-03-17T21:16:59.024820,5,EyesClosed
1764.781983468769,4658.908207286383,-5225.0331908504,-6497.562706179942,29895.704078162205,-6483.726976362107,5825.6916195978665,4942.954175824425,0.0,0.0,0.0,2019-03-17T21:16:59.025452,5,EyesClosed
2080.254504710973,4975.006577373335,-4854.48597127032,-6134.145693081105,30235.383538649505,-6222.144511001648,6162.21948411697,5301.342046420818,0.0,0.0,0.0,2019-03-17T21:16:59.033117,5,EyesClosed
1727.2310527838533,4618.540956800099,-5165.510495365917,-6431.647411781241,30051.473385271238,-5705.998028039698,5876.988873122797,5099.729311433949,0.0,0.0,0.0,2019-03-17T21:16:59.033821,5,EyesClosed
1362.2494175731442,4248.84310350932,-5574.614474131403,-6837.599794578528,29682.334325591844,-5894.490289031302,5500.741958706612,4714.899327146927,0.0,0.0,0.0,2019-03-17T21:16:59.040934,5,EyesClosed
1666.7472322877923,4553.3409182239675,-5314.998962283011,-6588.3554921574,29815.86364696785,-6427.9370222016605,5739.503292978203,4874.446079068909,0.0,0.0,0.0,2019-03-17T21:16:59.041597,5,EyesClosed
2065.8376295373,4957.192237042455,-4866.578265020641,-6151.892978178618,30199.106657398544,-6293.379520580712,6148.6519752325985,5282.298360144897,0.0,0.0,0.0,2019-03-17T21:16:59.048281,5,EyesClosed
1795.0238937167996,4685.797355866117,-5085.357139749186,-6358.959538812583,30093.271147402666,-5746.90172039291,5942.5018361213015,5163.789411042859,0.0,0.0,0.0,2019-03-17T21:16:59.048980,5,EyesClosed
1369.2008100987448,4252.397030877713,-5549.714630808191,-6815.695085012328,29694.516026319987,-5799.562430329613,5505.592287253415,4744.135408894469,-0.01,1.006,0.276,2019-03-17T21:16:59.055634,5,EyesClosed
1569.40538518493,4459.93297814524,-5399.041521434966,-6676.667234500317,29727.574256369386,-6350.77880034194,5643.770771476123,4800.238287477289,0.0,0.0,0.0,2019-03-17T21:16:59.056275,5,EyesClosed
2029.8289692198002,4922.412922669998,-4904.77739629476,-6196.685874067053,30123.28954020614,-6362.625224903253,6093.890201317096,5225.591984461783,0.0,0.0,0.0,2019-03-17T21:16:59.062853,5,EyesClosed
1893.8409559537122,4778.758261055739,-4980.773327442805,-6265.775116178408,30130.643264131937,-5804.882145509976,6015.927316656986,5230.755237430959,0.0,0.0,0.0,2019-03-17T21:16:59.070475,5,EyesClosed
1414.6642583208393,4303.448415213635,-5469.1589437912635,-6745.890587078404,29729.630616859275,-5712.927068820843,5560.510523380104,4808.843709092583,0.0,0.0,0.0,2019-03-17T21:16:59.071117,5,EyesClosed
1486.1004336000008,4384.272323164025,-5456.351394218373,-6738.402752685875,29652.539450232918,-6255.627424195698,5573.742756097646,4745.185940883868,0.0,0.0,0.0,2019-03-17T21:16:59.077476,5,EyesClosed
1982.2868087633622,4874.557837791185,-4951.269024761799,-6249.257177025936,30034.910742629858,-6406.658161480208,6037.452046567446,5163.409431387118,0.0,0.0,0.0,2019-03-17T21:16:59.077978,5,EyesClosed
1975.4024714711277,4859.582169006129,-4900.329399148154,-6197.17761244507,30142.422633459882,-5875.178381821916,6074.712404574443,5276.084575186322,0.0,0.0,0.0,2019-03-17T21:16:59.084920,5,EyesClosed
1469.5154392141628,4344.396811055757,-5398.549783056949,-6686.725519505206,29757.257373006032,-5648.397582578371,5602.643561678357,4863.2478550968,0.0,0.0,0.0,2019-03-17T21:16:59.085202,5,EyesClosed
1401.320266881021,4278.74973759052,-5522.154929894797,-6817.237355379743,29577.303478396356,-6141.6111757291765,5481.586513708415,4685.21621051028,0.0,0.0,0.0,2019-03-17T21:16:59.092783,5,EyesClosed
1884.9896651494105,4769.951673740348,-5039.245490937888,-6345.034402016927,29927.756479711115,-6416.939963929649,5928.710809792377,5073.734232632427,-0.008,1.0,0.278,2019-03-17T21:16:59.093114,5,EyesClosed
2006.583154986281,4878.491744815319,-4846.998136877792,-6154.4634287909785,30141.550915426127,-5943.753533810799,6099.031102541817,5303.510165632983,0.0,0.0,0.0,2019-03-17T21:16:59.101126,5,EyesClosed
1514.8447769695256,4384.8758202643185,-5311.355627936796,-6606.259239466101,29795.52355951352,-5603.291762267561,5660.758097262156,4938.327364722177,0.0,0.0,0.0,2019-03-17T21:16:59.101810,5,EyesClosed
1336.5002079606304,4220.210518862071,-5543.500845849615,-6835.521082344185,29534.45518427553,-6004.215002562404,5439.319364943429,4680.231771496746,0.0,0.0,0.0,2019-03-17T21:16:59.108060,5,EyesClosed
1765.9889776693558,4661.679823598841,-5130.597070526728,-6432.65324028173,29808.308757341954,-6419.398655819733,5820.215442206317,4991.680978736995,0.0,0.0,0.0,2019-03-17T21:16:59.108719,5,EyesClosed
1987.6512274326358,4883.051500684202,-4847.467523511354,-6149.791914199819,30087.9514322223,-6059.3120526447365,6080.188581965993,5291.149650949198,0.0,0.0,0.0,2019-03-17T21:16:59.115820,5,EyesClosed
1570.2323997297765,4462.279911313047,-5236.7678566894365,-6517.455758745165,29829.654673296773,-5595.401596474838,5725.42169397136,5016.46906333793,0.0,0.0,0.0,2019-03-17T21:16:59.116454,5,EyesClosed
1290.7238353161617,4188.269876035438,-5569.160648484308,-6843.92533825938,29510.002375841425,-5876.966521378341,5414.173652431208,4683.293960487123,0.0,0.0,0.0,2019-03-17T21:16:59.122939,5,EyesClosed
1668.9600549888678,4576.765546413129,-5222.395685004674,-6508.470357474132,29718.61120684281,-6363.452239448099,5733.960060353286,4916.824986556171,0.0,0.0,0.0,2019-03-17T21:16:59.130499,5,EyesClosed
2003.3645037847168,4905.738521306339,-4838.392715262498,-6129.205957556482,30064.28093484413,-6123.97564935394,6084.502468645867,5283.326540389841,0.0,0.0,0.0,2019-03-17T21:16:59.130981,5,EyesClosed
1667.7083572993706,4561.164028783325,-5134.754494995415,-6412.000228405026,29886.450455957707,-5600.475442466193,5804.837442021066,5093.761395664382,-0.006,1.002,0.28600000000000003,2019-03-17T21:16:59.137467,5,EyesClosed
1278.6538933102959,4170.656701404655,-5568.0654130059975,-6841.980736491769,29495.876073345673,-5775.199028873329,5400.270867380008,4684.88093434345,0.0,0.0,0.0,2019-03-17T21:16:59.138142,5,EyesClosed
1572.2887602196647,4472.047623640015,-5322.978535053556,-6612.49537616913,29614.228560236523,-6313.540794079398,5626.023486378609,4825.853386623071,0.0,0.0,0.0,2019-03-17T21:16:59.145438,5,EyesClosed
1990.8251751452894,4893.355654878099,-4862.733764974328,-6165.259321362892,30000.42200093532,-6206.386531160657,6041.430657080491,5240.947632902579,0.0,0.0,0.0,2019-03-17T21:16:59.146079,5,EyesClosed
1754.1649048524982,4653.342622917012,-5031.444732122985,-6331.578651854832,29927.600017499928,-5644.1954546207735,5868.405803251959,5159.743745296449,0.0,0.0,0.0,2019-03-17T21:16:59.153443,5,EyesClosed
1301.899707543815,4197.523498239934,-5504.094720374909,-6801.926410427858,29527.526143494386,-5663.283844385605,5428.1211409713205,4733.272461089189,0.0,0.0,0.0,2019-03-17T21:16:59.154094,5,EyesClosed
1454.159790773367,4352.62225301531,-5414.397169875761,-6708.876098260414,29516.79730615584,-6227.441874437556,5521.350267094406,4745.051830417136,0.0,0.0,0.0,2019-03-17T21:16:59.160079,5,EyesClosed
1915.9915347089213,4821.405389476466,-4926.279774460766,-6222.99387729095,29892.194854282723,-6268.278511557402,5971.782621357754,5173.288902436364,0.0,0.0,0.0,2019-03-17T21:16:59.160819,5,EyesClosed
1820.0578475067434,4726.231661585768,-4962.891931878559,-6247.670203169609,29875.140473263324,-5693.570458122547,5938.187949441427,5222.686257682593,0.0,0.0,0.0,2019-03-17T21:16:59.168138,5,EyesClosed
1342.7139929192058,4242.875187739753,-5452.3057284719625,-6725.796368813082,29345.89586805056,-5563.617415859391,5476.646778183792,4809.2683922372335,0.0,0.0,0.0,2019-03-17T21:16:59.168990,5,EyesClosed
1389.2279731306999,4293.747758120031,-5463.459248955161,-6744.504778922174,29115.605844927533,-6097.198259496482,5460.620577409337,4724.689391218351,-0.004,1.002,0.274,2019-03-17T21:16:59.176016,5,EyesClosed
1871.8691911541453,4779.18294420039,-4969.664510448517,-6260.522456231411,29393.907415140562,-6291.233753113002,5917.467882331358,5132.675782761072,0.0,0.0,0.0,2019-03-17T21:16:59.176864,5,EyesClosed
1898.2889531003182,4798.830127576605,-4883.565590806674,-6166.890998708129,29457.49812811591,-5769.14170612594,5994.849621635631,5281.0466624554,0.0,0.0,0.0,2019-03-17T21:16:59.184740,5,EyesClosed
1412.6973048087723,4315.250136286037,-5372.264131577508,-6639.049248582036,29025.26009383918,-5515.1141303913755,5539.075200447464,4888.6841402869395,0.0,0.0,0.0,2019-03-17T21:16:59.190573,5,EyesClosed
1327.6712689007843,4226.133731142728,-5520.858528716389,-6790.43761377783,28772.46186404966,-5994.760214657809,5398.840355734868,4693.888687358938,0.0,0.0,0.0,2019-03-17T21:16:59.191285,5,EyesClosed
1804.3445711546626,4702.427053740866,-5040.117208971645,-6325.141349451703,29068.309553660103,-6295.122956648226,5839.952032560353,5074.360081477175,0.0,0.0,0.0,2019-03-17T21:16:59.197778,5,EyesClosed
1946.4122589125943,4844.382982776521,-4834.2129390493565,-6120.399370241091,29267.55300373471,-5841.427247694403,6032.065276153717,5317.167081495176,0.0,0.0,0.0,2019-03-17T21:16:59.198498,5,EyesClosed
1464.9333316008249,4367.374404355813,-5294.390653895218,-6565.221436646157,28913.34490935146,-5472.332891503917,5604.677570423791,4967.921074381003,0.0,0.0,0.0,2019-03-17T21:16:59.205693,5,EyesClosed
1252.5694075309525,4158.1173727652285,-5570.188828729252,-6834.805826521615,28605.673146924157,-5869.92572187492,5350.58293945586,4677.4825069287435,0.0,0.0,0.0,2019-03-17T21:16:59.206609,5,EyesClosed
1692.2282209668424,4599.1843461018025,-5158.82732377378,-6432.8097024929175,28864.439292483246,-6290.697311246075,5735.569385954069,4985.8918769230695,0.0,0.0,0.0,2019-03-17T21:16:59.212586,5,EyesClosed
1943.4394769000385,4845.43351476592,-4855.938834659914,-6130.077675590239,29143.366711541024,-5959.936196796441,6015.927316656986,5298.369264408263,-0.008,1.008,0.276,2019-03-17T21:16:59.213182,5,EyesClosed
1543.6338238279611,4447.661870439276,-5223.803844905358,-6475.23331346909,28886.701629960735,-5489.342569034407,5675.242027669195,5043.335860173209,0.0,0.0,0.0,2019-03-17T21:16:59.220144,5,EyesClosed
1230.5752909869304,4137.1067329772395,-5590.260695250117,-6828.480282840763,28527.21852388603,-5762.145610111429,5334.2661660034855,4686.065576799581,0.0,0.0,0.0,2019-03-17T21:16:59.220777,5,EyesClosed
1581.3635684685194,4494.377016350868,-5279.28087464343,-6521.43436925821,28701.11509574832,-6267.04916561236,5625.889375911877,4895.054387456702,0.0,0.0,0.0,2019-03-17T21:16:59.228428,5,EyesClosed
1951.6649188595916,4861.303253329188,-4865.952416175892,-6111.369265481147,29062.811024524097,-6040.491883813368,6005.869031652097,5291.0602439713775,0.0,0.0,0.0,2019-03-17T21:16:59.229130,5,EyesClosed
1650.4081070909629,4554.257339746635,-5123.220994856477,-6359.607739401787,28907.600511026445,-5496.785699938024,5760.178656599362,5139.202492142021,0.0,0.0,0.0,2019-03-17T21:16:59.236459,5,EyesClosed
1240.9241486697374,4148.215549971527,-5571.10525025192,-6800.160622615889,28516.199113869563,-5636.729971972701,5342.692773663137,4725.69521971884,0.0,0.0,0.0,2019-03-17T21:16:59.237135,5,EyesClosed
1485.1840120773331,4398.82330880443,-5376.041576390455,-6618.105664027413,28583.99195480251,-6195.501231610922,5523.09370316192,4822.344162743588,0.0,0.0,0.0,2019-03-17T21:16:59.242518,5,EyesClosed
1917.6008603097034,4831.91070937046,-4907.794881796227,-6161.88420795014,28933.64029331688,-6123.193338298004,5953.543597882223,5242.668717225638,0.0,0.0,0.0,2019-03-17T21:16:59.243380,5,EyesClosed
1718.268003257275,4635.260061652668,-5052.09774399969,-6299.213325883547,28813.454963380693,-5562.209255958707,5816.661514837923,5194.8583358357355,0.0,0.0,0.0,2019-03-17T21:16:59.250745,5,EyesClosed
1271.4119281067763,4176.937541596597,-5527.899328219811,-6770.0975263235005,28367.627068475136,-5550.474590119671,5371.861800177312,4776.143106954469,-0.012,1.012,0.278,2019-03-17T21:16:59.259358,5,EyesClosed
1409.1433774403786,4311.629153684277,-5444.12499000132,-6697.387301610387,28329.807916856756,-6106.0942537896935,5450.629347637814,4776.523086610208,0.0,0.0,0.0,2019-03-17T21:16:59.260261,5,EyesClosed
1878.462955768461,4789.084766994091,-4949.257367760822,-6220.132854000671,28702.791476582468,-6187.432251862557,5906.850803715087,5202.010894061434,0.0,0.0,0.0,2019-03-17T21:16:59.265711,5,EyesClosed
1780.3387976096628,4687.630198911453,-4988.931714168992,-6252.9005113721505,28721.991625069575,-5652.555007047058,5865.522428217224,5243.831007937313,0.0,0.0,0.0,2019-03-17T21:16:59.266360,5,EyesClosed
1294.97066676267,4199.602210474278,-5485.095737587898,-6737.307517207565,28313.55819863775,-5496.472775515649,5403.713036026124,4831.038991336703,0.0,0.0,0.0,2019-03-17T21:16:59.272608,5,EyesClosed
1304.514861645086,4212.11918736925,-5535.5436248235255,-6794.282113824143,28174.57505161465,-6027.058485395728,5356.304986036419,4715.301658547122,0.0,0.0,0.0,2019-03-17T21:16:59.273367,5,EyesClosed
1801.2600304198302,4710.876013144972,-5033.746961801882,-6309.361017866257,28532.31472162184,-6242.99868857845,5814.426340392392,5125.545576279828,0.0,0.0,0.0,2019-03-17T21:16:59.280613,5,EyesClosed
1841.5378739282935,4751.6232432869965,-4926.190367482945,-6199.8374700352515,28667.095740687342,-5742.6325372019455,5904.213297869361,5287.841592769813,0.0,0.0,0.0,2019-03-17T21:16:59.281285,5,EyesClosed
1356.616777970407,4263.46114438309,-5403.73538777058,-6662.0268418820915,28285.30559364624,-5451.41165869375,5455.703193629169,4909.784187052749,0.0,0.0,0.0,2019-03-17T21:16:59.288870,5,EyesClosed
1253.038794164514,4156.105715764251,-5578.280160222073,-6836.97394573378,28057.206041479832,-5908.527184549235,5303.308999932886,4697.822594383072,0.0,0.0,0.0,2019-03-17T21:16:59.289579,5,EyesClosed
1740.9103203905013,4647.039430980615,-5106.904221404102,-6379.16551580018,28380.792245959314,-6244.876235112695,5743.750124424711,5068.928607574536,-0.014,1.006,0.278,2019-03-17T21:16:59.295224,5,EyesClosed
1891.494022785905,4811.637677149496,-4890.137003676535,-6160.297234093814,28596.66539390867,-5832.5536051456465,5943.105333221595,5321.123340263765,0.0,0.0,0.0,2019-03-17T21:16:59.295928,5,EyesClosed
1423.8061218030598,4345.648508745255,-5329.974631068067,-6579.414794375276,28263.579698035683,-5445.9354813022,5535.3648108678835,4994.407891560542,0.0,0.0,0.0,2019-03-17T21:16:59.303270,5,EyesClosed
1182.0496537744586,4090.257476598916,-5629.957393402743,-6874.368414207508,27942.362778468465,-5824.350514930548,5252.816409208347,4678.756556362696,0.0,0.0,0.0,2019-03-17T21:16:59.303895,5,EyesClosed
1610.7561124272481,4521.4673306306995,-5234.555033988361,-6488.890229331283,28189.81894133317,-6270.379575536201,5616.836919407478,4966.4011557580425,0.0,0.0,0.0,2019-03-17T21:16:59.310329,5,EyesClosed
1896.0761303992429,4807.14497651398,-4894.517945589775,-6149.5013415219,28493.243872313964,-5954.571778127168,5927.257946402782,5308.315790690875,0.0,0.0,0.0,2019-03-17T21:16:59.318269,5,EyesClosed
1499.1091488729894,4406.624067619332,-5259.18665637811,-6497.04861605747,28222.608950449106,-5481.519458475049,5582.750509113134,5051.784819577315,0.0,0.0,0.0,2019-03-17T21:16:59.318980,5,EyesClosed
1173.8242118149058,4078.388700293148,-5640.015678407631,-6868.825181582592,27842.94221913126,-5720.303144491094,5230.062333352845,4685.864411099483,0.0,0.0,0.0,2019-03-17T21:16:59.324709,5,EyesClosed
1511.3579048344977,4428.349963229891,-5339.094142805832,-6577.604303074397,27994.576453516063,-6235.846130352751,5511.560203022981,4883.476183828853,0.0,0.0,0.0,2019-03-17T21:16:59.325438,5,EyesClosed
1874.909028400067,4797.176098486912,-4923.418751170487,-6169.260283620391,28328.980902311912,-6055.221683409415,5888.298855817182,5270.9883774505115,0.0,0.0,0.0,2019-03-17T21:16:59.332899,5,EyesClosed
1577.2731992331983,4494.578182050966,-5172.5512948693395,-6408.60276324782,28159.420568873953,-5514.711798991179,5651.035088424098,5125.970259424479,-0.012,1.006,0.28200000000000003,2019-03-17T21:16:59.333613,5,EyesClosed
1158.3568046518333,4074.1418688466397,-5634.964184160732,-6862.879617557481,27733.217505600158,-5624.660029966835,5223.513272227439,4708.149100321424,0.0,0.0,0.0,2019-03-17T21:16:59.340929,5,EyesClosed
1392.6924935212724,4317.32884852038,-5452.238673238597,-6688.960693950737,27787.420485904277,-6174.803516245308,5395.6664080222145,4798.204278731857,0.0,0.0,0.0,2019-03-17T21:16:59.341766,5,EyesClosed
1862.5708654607374,4796.5278978977085,-4948.162132282511,-6195.814156033297,28185.080371508644,-6104.663742144554,5860.82856188161,5250.447124296084,0.0,0.0,0.0,2019-03-17T21:16:59.348096,5,EyesClosed
1680.5606103611722,4608.661485750853,-5071.253188997887,-6310.590363811299,28131.14561213799,-5541.198616170718,5742.766647668677,5223.535623971895,0.0,0.0,0.0,2019-03-17T21:16:59.348743,5,EyesClosed
1197.070026048425,4106.976581451486,-5577.587256143958,-6807.514346541685,27685.988269566093,-5517.394008325817,5269.669624527648,4781.775746557206,0.0,0.0,0.0,2019-03-17T21:16:59.355738,5,EyesClosed
1296.5129371300861,4213.728512970032,-5533.710781778191,-6771.773907157649,27617.480172810578,-6083.563695378744,5308.360494179785,4743.442504816354,0.0,0.0,0.0,2019-03-17T21:16:59.356374,5,EyesClosed
1783.7809662557802,4707.947934621327,-5027.220252420932,-6276.213380839036,28000.142037885435,-6184.481821594456,5773.723813739278,5171.970149513501,0.0,0.0,0.0,2019-03-17T21:16:59.363730,5,EyesClosed
1724.9064713605014,4651.554483360587,-5012.46810108043,-6255.493313728966,28066.996105551258,-5624.458864266738,5785.100851667029,5259.8348569673135,0.0,0.0,0.0,2019-03-17T21:16:59.364581,5,EyesClosed
1218.6394594477963,4147.38853542668,-5518.712761248679,-6746.181159756322,27649.75609180404,-5440.191082977186,5318.463482673584,4843.332450787121,0.0,0.0,0.0,2019-03-17T21:16:59.370825,5,EyesClosed
1206.5918691863858,4142.292337690871,-5598.910820354321,-6825.909832228403,27495.283185873413,-5953.767115326777,5251.8552841967685,4707.769120665685,-0.008,1.006,0.28600000000000003,2019-03-17T21:16:59.376938,5,EyesClosed
1705.3039914731971,4642.434971622822,-5102.970314379968,-6339.669983347653,27861.65062924035,-6191.008530975406,5712.077702531541,5115.911974419591,0.0,0.0,0.0,2019-03-17T21:16:59.377690,5,EyesClosed
1779.78000399828,4709.870184644483,-4969.753917426338,-6203.503156125922,28015.721203770783,-5706.467414673259,5828.083256254585,5297.497546374506,0.0,0.0,0.0,2019-03-17T21:16:59.385185,5,EyesClosed
1307.778216335561,4232.772199245954,-5438.000612020566,-6658.718783702706,27639.966027732615,-5396.538126055972,5388.424442818695,4924.335172693154,0.0,0.0,0.0,2019-03-17T21:16:59.385840,5,EyesClosed
1149.6396243142635,4082.0767381282735,-5656.891245471388,-6874.83780084107,27380.95401298452,-5859.375698492015,5183.011911274423,4668.295939957612,0.0,0.0,0.0,2019-03-17T21:16:59.393074,5,EyesClosed
1614.1982810733655,4552.6927176347635,-5208.291734253376,-6435.201339149635,27691.442095213188,-6233.432141951578,5597.68147440928,5013.943316214481,0.0,0.0,0.0,2019-03-17T21:16:59.393980,5,EyesClosed
1809.396065401562,4747.018783929203,-4951.850170117637,-6178.312740124791,27939.81467960056,-5839.259128482238,5831.346610945059,5293.451880628095,0.0,0.0,0.0,2019-03-17T21:16:59.401860,5,EyesClosed
1369.7596037101275,4292.60781915281,-5366.944416397145,-6579.772422286561,27629.03602469397,-5427.808216548946,5440.660469610747,4982.494411765863,0.0,0.0,0.0,2019-03-17T21:16:59.402575,5,EyesClosed
1113.4521500411213,4026.0185630343635,-5680.785260294111,-6890.3052080041425,27299.54895967829,-5780.518744053691,5150.646585303139,4656.225997951746,0.0,0.0,0.0,2019-03-17T21:16:59.408031,5,EyesClosed
1521.3267828615647,4437.06714356746,-5305.499470889506,-6525.524738493531,27528.095546733803,-6249.480694470489,5496.696292960202,4923.754027337316,0.0,0.0,0.0,2019-03-17T21:16:59.408954,5,EyesClosed
1813.5311381257939,4737.3628303245105,-4954.197103285444,-6177.441022091034,27839.388291762865,-5970.463868434891,5811.766482802211,5266.89800821519,-0.008,1.006,0.28,2019-03-17T21:16:59.417202,5,EyesClosed
1461.8264391215373,4382.8194597744305,-5269.982548950023,-6476.7755838365065,27637.105004442335,-5456.284338985007,5516.164662380775,5063.631244138628,0.0,0.0,0.0,2019-03-17T21:16:59.417845,5,EyesClosed
1107.5959929938308,4024.900975811598,-5677.857181770466,-6877.385899708975,27252.4314823665,-5679.108879459963,5133.212224627999,4677.817783095573,0.0,0.0,0.0,2019-03-17T21:16:59.425224,5,EyesClosed
1438.804142332571,4364.24516013207,-5392.000721931544,-6600.201916718712,27399.908292282616,-6198.4293101345675,5398.9744662016,4862.465544040864,0.0,0.0,0.0,2019-03-17T21:16:59.426225,5,EyesClosed
1838.7662576158355,4765.011938215725,-4951.626652673084,-6164.097030651215,27765.44872110471,-6044.045811181762,5805.2621251657165,5272.66475828466,0.0,0.0,0.0,2019-03-17T21:16:59.431698,5,EyesClosed
1532.502655089218,4461.363489790379,-5202.50263243945,-6403.484213767554,27599.88934992425,-5526.155892152297,5566.43373566076,5126.573756524773,0.0,0.0,0.0,2019-03-17T21:16:59.437373,5,EyesClosed
1094.7437399320293,4023.93985080002,-5674.571475335536,-6865.02538502519,27170.355876726615,-5607.069207080509,5128.361896081197,4702.449405485321,0.0,0.0,0.0,2019-03-17T21:16:59.438211,5,EyesClosed
1317.4788734291642,4252.955824489096,-5504.452348286194,-6701.9470574792695,27215.953435415442,-6150.440114789023,5294.077729472844,4784.502659380753,0.0,0.0,0.0,2019-03-17T21:16:59.445401,5,EyesClosed
1770.2805126047747,4714.496995746732,-5012.311638869243,-6226.905432570628,27603.532684270467,-6138.92896639454,5743.839531402532,5218.305315769353,0.0,0.0,0.0,2019-03-17T21:16:59.445874,5,EyesClosed
1621.1049701100553,4566.28257826359,-5105.004323125401,-6309.942163222095,27585.27130905048,-5573.116907252897,5658.277053627617,5217.232432035498,0.0,0.0,0.0,2019-03-17T21:16:59.453458,5,EyesClosed
1155.8981127617494,4088.9387236760526,-5594.909858096821,-6785.877857908948,27170.735856382355,-5495.891630159811,5207.151795286155,4799.768900843728,-0.008,1.01,0.278,2019-03-17T21:16:59.454180,5,EyesClosed
1233.6151282328522,4172.131916538706,-5571.082898507464,-6770.611616445973,27088.5931955091,-6052.472418841412,5226.46370249554,4745.655327517429,0.0,0.0,0.0,2019-03-17T21:16:59.459998,5,EyesClosed
1713.1271020325546,4654.884893284428,-5073.9353983325245,-6284.483526287499,27458.894545900173,-6197.043501978338,5681.992254494698,5161.665995319605,0.0,0.0,0.0,2019-03-17T21:16:59.460679,5,EyesClosed
1685.7685668192587,4620.686724267808,-5037.636165337106,-6241.925804844595,27545.5522591534,-5665.787239764601,5716.145720022407,5263.813467480358,0.0,0.0,0.0,2019-03-17T21:16:59.468196,5,EyesClosed
1197.8076336154502,4131.854073030242,-5524.658325273791,-6714.70990356325,27151.80392882871,-5449.489408670594,5259.499580800483,4862.040860896213,0.0,0.0,0.0,2019-03-17T21:16:59.468837,5,EyesClosed
1163.1847814541795,4099.444043570047,-5621.597840976458,-6815.203346634311,26989.373801871992,-5948.022717001762,5167.231579688976,4707.433844498854,0.0,0.0,0.0,2019-03-17T21:16:59.476139,5,EyesClosed
1640.5286360417172,4583.00168311616,-5145.773905011882,-6352.477532920544,27330.684939704533,-6234.102694285238,5606.800986147045,5085.357139749186,0.0,0.0,0.0,2019-03-17T21:16:59.476790,5,EyesClosed
1737.6469657000264,4685.193858765824,-4982.248542576855,-6181.777260515364,27517.679633817632,-5761.273892077672,5761.162133355396,5296.312903918374,0.0,0.0,0.0,2019-03-17T21:16:59.483385,5,EyesClosed
1277.6927682987175,4214.846100192797,-5431.1162747283315,-6616.8316145934605,27174.401542473024,-5411.603201818848,5342.983346341056,4949.257367760822,0.0,0.0,0.0,2019-03-17T21:16:59.484166,5,EyesClosed
1098.2976673004232,4032.9923073044192,-5673.900923001876,-6858.364565177509,26899.430382183837,-5849.004489064752,5120.337619821742,4676.811954595084,0.0,0.0,0.0,2019-03-17T21:16:59.489948,5,EyesClosed
1542.0021464827237,4486.799774980518,-5249.061316139855,-6442.979746220082,27191.43357174797,-6246.194988035559,5515.13648213583,4997.023045661813,-0.012,1.01,0.268,2019-03-17T21:16:59.490702,5,EyesClosed
1755.3271955641742,4698.40373973891,-4977.1746965855,-6168.097992908716,27466.158862848148,-5869.746907919277,5760.312767066093,5287.461613114073,0.0,0.0,0.0,2019-03-17T21:16:59.497920,5,EyesClosed
1335.74024864915,4270.434888653146,-5374.074622878387,-6546.133046881324,27184.348068755637,-5425.640097336781,5390.704320753136,5002.096891653167,0.0,0.0,0.0,2019-03-17T21:16:59.505697,5,EyesClosed
1061.238474993524,3999.3976353880926,-5707.339132707016,-6871.485039172774,26856.31386712955,-5742.073743590563,5090.945075863013,4670.486410914232,0.0,0.0,0.0,2019-03-17T21:16:59.506352,5,EyesClosed
1449.868255837948,4398.666846593243,-5352.035802845455,-6522.820177414439,27078.93724190441,-6222.591545890755,5427.092960726376,4924.513986648797,0.0,0.0,0.0,2019-03-17T21:16:59.512338,5,EyesClosed
1755.8636374311016,4706.807995654106,-4987.724719968405,-6160.721917238465,27405.451524907534,-5982.980845329863,5762.57029325608,5278.342101376307,0.0,0.0,0.0,2019-03-17T21:16:59.513078,5,EyesClosed
1406.8858512503925,4349.627119258299,-5300.738549320526,-6457.396621393755,27206.81157193322,-5479.08311832942,5476.110336316864,5076.7517181338935,0.0,0.0,0.0,2019-03-17T21:16:59.520265,5,EyesClosed
1040.2054834610801,3981.270370634839,-5717.263307245173,-6871.395632194953,26818.74058470018,-5666.815420009544,5086.653540927594,4684.724472132262,0.0,0.0,0.0,2019-03-17T21:16:59.520904,5,EyesClosed
1351.0064901121248,4289.299760973426,-5458.854789597367,-6628.365114732399,26948.358350796505,-6209.113443984204,5325.370171710274,4839.219729807345,0.0,0.0,0.0,2019-03-17T21:16:59.528364,5,EyesClosed
1731.790808652736,4677.571913906564,-5019.240679650388,-6201.580906102766,27320.224323299448,-6104.574335166733,5726.159301538384,5238.555996245861,0.0,0.0,0.0,2019-03-17T21:16:59.529005,5,EyesClosed
1474.0975468275008,4423.812559105463,-5208.537603442383,-6388.173268815669,27221.608426762632,-5546.115999950886,5540.840988259433,5144.432800344563,-0.008,1.006,0.276,2019-03-17T21:16:59.535659,5,EyesClosed
1036.5397973704098,3989.5852195722127,-5675.622007324935,-6846.495788871741,26817.444183521773,-5578.123698010886,5101.919782390569,4727.662173230908,0.0,0.0,0.0,2019-03-17T21:16:59.536366,5,EyesClosed
