eeg1,eeg2,eeg3,eeg4,eeg5,eeg6,eeg7,eeg8,accx,accy,accz,iso_utc,session_id,command_name
0.0,0.0,0.0,0.0,0.0,0.0,0.0,0.0,0.0,0.998,0.264,2019-03-17T21:18:24.286262,7,EyesClosed
-3861.107392443108,-1414.7760170431159,-2974.4807451344427,-6805.2568203516985,35461.55666846713,-1211.2857355220003,6081.864962800141,4899.3682741365765,0.0,0.0,0.0,2019-03-17T21:18:24.288380,7,EyesClosed
-3945.105248106152,-1504.1382913754335,-2968.9375125095266,-6760.4639244632635,35504.47201782132,-636.3988681315027,6063.91651200253,4943.401210713531,0.0,0.0,0.0,2019-03-17T21:18:24.293996,7,EyesClosed
-4297.055816299417,-1860.9391881155002,-3315.9259934337133,-7081.412623097018,35232.428936055774,-280.26852372509524,5745.024173858664,4638.948099487794,0.0,0.0,0.0,2019-03-17T21:18:24.294682,7,EyesClosed
-4259.504885614501,-1819.141425984076,-3366.2621219470648,-7164.829333404224,35154.53310662903,-806.0486085472833,5728.640345172924,4556.4254589588,0.0,0.0,0.0,2019-03-17T21:18:24.300545,7,EyesClosed
-3901.809919096222,-1455.0762122960346,-3022.536995713353,-6852.0390214966565,35420.8094383251,-1232.229320076623,6053.7911717642755,4850.194436334901,0.0,0.0,0.0,2019-03-17T21:18:24.301029,7,EyesClosed
-3890.522288146292,-1458.093697797501,-2925.2622038438567,-6725.99753451318,35537.999634504275,-751.8456282431637,6121.4946057194,4975.990054129369,0.0,0.0,0.0,2019-03-17T21:18:24.308566,7,EyesClosed
-4257.582635591345,-1837.0451732927768,-3265.0087195645237,-7037.513796986795,35278.40647440034,-284.5824104049695,5794.510936082714,4682.444594197821,0.0,0.0,0.0,2019-03-17T21:18:24.309443,7,EyesClosed
-4311.316229261903,-1883.1568221040754,-3399.00742757409,-7199.51924079886,35131.8907894958,-688.7466536458319,5687.60254235298,4524.618926598898,-0.002,1.0,0.268,2019-03-17T21:18:24.316627,7,EyesClosed
-3951.4307917870037,-1511.2237943677658,-3075.309464372333,-6915.093292605078,35370.83093772303,-1215.6443256907853,6000.23639204936,4795.991456030781,0.0,0.0,0.0,2019-03-17T21:18:24.317340,7,EyesClosed
-3845.4164678354823,-1405.835319260993,-2889.8123371377396,-6715.648676830373,35550.96364628836,-871.2709988678693,6148.339050810225,4993.1785456155,0.0,0.0,0.0,2019-03-17T21:18:24.323750,7,EyesClosed
-4185.92294286763,-1751.1250676065765,-3176.227590588044,-6958.209807659365,35348.680358967824,-284.40359644932704,5869.3669282635365,4767.872961506005,0.0,0.0,0.0,2019-03-17T21:18:24.324305,7,EyesClosed
-4354.991537927573,-1919.3889998661282,-3410.6973899242153,-7205.397749590606,35128.202751660676,-561.0734893171178,5673.878571257422,4530.676249346287,0.0,0.0,0.0,2019-03-17T21:18:24.331383,7,EyesClosed
-4043.7211446429665,-1592.5841441850835,-3158.167381068156,-6987.959979529379,35302.59106190098,-1180.5744386404085,5934.03052497274,4738.1227896359915,0.0,0.0,0.0,2019-03-17T21:18:24.331885,7,EyesClosed
-3832.586566518136,-1378.4320805587865,-2895.936715118494,-6713.257040173655,35537.15026821497,-976.2571425744466,6157.592673014721,5001.806318975248,0.0,0.0,0.0,2019-03-17T21:18:24.338298,7,EyesClosed
-4134.536282364879,-1687.6014098645937,-3123.52217716243,-6892.048644071656,35390.12049318796,-329.7329342046898,5926.050952202196,4831.95541285937,0.0,0.0,0.0,2019-03-17T21:18:24.346141,7,EyesClosed
-4369.229599145603,-1918.941964977022,-3405.19886078821,-7175.625225976137,35142.82079253445,-437.2895285236274,5679.466507371248,4554.346746724456,0.0,0.0,0.0,2019-03-17T21:18:24.346792,7,EyesClosed
-4091.4644707995026,-1631.923214426424,-3207.0282944474575,-7018.470110710873,35265.10718644943,-1088.619361951275,5889.6399604845,4702.516460718687,0.0,0.0,0.0,2019-03-17T21:18:24.353294,7,EyesClosed
-3836.721639242368,-1371.7936124555604,-2905.570316978731,-6720.275487932621,35522.82280001912,-1069.463916953077,6159.045536404316,4991.457461292442,-0.004,1.01,0.268,2019-03-17T21:18:24.353916,7,EyesClosed
-4065.000005364419,-1625.4635602788403,-3057.852751952738,-6832.347134631531,35434.15342976492,-416.92708932484265,5994.134365813061,4889.689968787428,0.0,0.0,0.0,2019-03-17T21:18:24.361038,7,EyesClosed
-4367.106183422349,-1938.8350175422452,-3399.342703740919,-7165.2540165488745,35148.408728648275,-369.9437224797872,5685.412071396359,4567.511924208632,0.0,0.0,0.0,2019-03-17T21:18:24.361675,7,EyesClosed
-4171.01432931594,-1732.5060644753057,-3281.7278244170934,-7087.5370010777715,35206.88089214336,-1003.5262708099212,5826.675096353901,4640.088038455015,0.0,0.0,0.0,2019-03-17T21:18:24.368825,7,EyesClosed
-3834.687630496935,-1383.3047608500435,-2925.15044512158,-6747.991651057202,35502.48271256479,-1137.2791096304786,6153.167027612571,4965.194161557456,0.0,0.0,0.0,2019-03-17T21:18:24.369334,7,EyesClosed
-3996.961295242464,-1536.1683411798886,-2997.860669834694,-6784.760270686183,35477.940497152864,-517.5769946070903,6054.841703753675,4932.538262908252,0.0,0.0,0.0,2019-03-17T21:18:24.376953,7,EyesClosed
-4333.198587083649,-1888.8341651957232,-3343.7315635361156,-7112.079216489699,35200.39888625132,-288.53866917355884,5737.893967377421,4617.177500388325,0.0,0.0,0.0,2019-03-17T21:18:24.377539,7,EyesClosed
-4217.975344416541,-1761.6303875005708,-3318.272926601521,-7119.2317747153975,35182.182214520246,-877.7753565043637,5794.108604682518,4606.113386882947,0.0,0.0,0.0,2019-03-17T21:18:24.383525,7,EyesClosed
-3861.6438343100353,-1397.1404906678786,-2965.2941781633112,-6788.4036050323975,35462.18251731188,-1178.652188617252,6124.623849943144,4921.541204636241,0.0,0.0,0.0,2019-03-17T21:18:24.384487,7,EyesClosed
-3930.554262465747,-1481.67478819785,-2951.570207067753,-6740.973203298236,35507.15422715595,-632.6214233185558,6107.122434034638,4968.703385436939,0.0,0.0,0.0,2019-03-17T21:18:24.392925,7,EyesClosed
-4294.105386031316,-1851.8867316111007,-3297.3069903024425,-7060.044355397744,35234.12766863438,-253.2005611897184,5779.982302186764,4661.590416621019,-0.006,1.008,0.27,2019-03-17T21:18:24.393692,7,EyesClosed
-4292.049025541428,-1851.0820688107096,-3372.900590050291,-7168.919702639545,35133.52246684104,-767.6036080841551,5737.379877254949,4552.983290312683,0.0,0.0,0.0,2019-03-17T21:18:24.399245,7,EyesClosed
-3922.999372839853,-1481.7418434312158,-3024.526300969875,-6854.318899431098,35394.38967637893,-1209.743465154584,6066.48696261489,4851.200264835389,0.0,0.0,0.0,2019-03-17T21:18:24.399993,7,EyesClosed
-3878.9887880073534,-1439.027659777124,-2898.440110497488,-6703.891659246881,35531.9870152458,-744.3354421061805,6157.302100336802,4998.65472300705,0.0,0.0,0.0,2019-03-17T21:18:24.406733,7,EyesClosed
-4240.058867938384,-1804.210460687931,-3229.111817969301,-7000.275790724253,35281.35690466844,-242.20350291770734,5834.878186568998,4716.59805972553,0.0,0.0,0.0,2019-03-17T21:18:24.413088,7,EyesClosed
-4319.116988076805,-1877.0324441233213,-3390.580819914439,-7180.587313245215,35123.48653358061,-625.871196493053,5715.408112455382,4544.5343309085765,0.0,0.0,0.0,2019-03-17T21:18:24.413832,7,EyesClosed
-3980.7339287679115,-1525.2159863967881,-3096.9906564939806,-6919.98832464079,35337.638597206904,-1188.9786945556039,6006.897211897041,4791.834031562094,0.0,0.0,0.0,2019-03-17T21:18:24.422436,7,EyesClosed
-3848.5457120592255,-1398.123967423912,-2893.4780232284097,-6702.662313301839,35528.96952974433,-870.5780947897548,6171.182533643549,5002.074539908712,0.0,0.0,0.0,2019-03-17T21:18:24.422925,7,EyesClosed
-4191.890858637197,-1744.8665791590906,-3175.400576043198,-6945.066981919645,35327.580312202015,-268.62326486388025,5897.686588488411,4775.6290168319965,0.0,0.0,0.0,2019-03-17T21:18:24.430878,7,EyesClosed
-4358.277244362503,-1910.5377090618265,-3411.8596806358914,-7195.495926796905,35112.02008867503,-510.40208463693676,5702.377045437938,4533.760790081119,0.0,0.0,0.0,2019-03-17T21:18:24.431516,7,EyesClosed
-4038.580243418246,-1590.728949395293,-3160.9613491250693,-6989.591656874616,35283.63678260288,-1144.431667856177,5956.851656061609,4729.874995931983,-0.008,1.008,0.268,2019-03-17T21:18:24.436765,7,EyesClosed
-3833.525339785259,-1382.6342085163842,-2891.1310900606027,-6716.52039486413,35521.39228837399,-978.5817239977985,6186.784051273353,4991.658626992539,0.0,0.0,0.0,2019-03-17T21:18:24.437336,7,EyesClosed
-4120.879366502687,-1683.466337140362,-3107.9877147659918,-6889.277027759198,35377.75997850418,-332.0575156280417,5961.746688097321,4827.149787801479,0.0,0.0,0.0,2019-03-17T21:18:24.443788,7,EyesClosed
-4356.533808294989,-1918.941964977022,-3393.799471116003,-7174.105307353176,35131.421402862245,-398.7104175937674,5711.831833342532,4551.306909478535,0.0,0.0,0.0,2019-03-17T21:18:24.444607,7,EyesClosed
-4094.2137353675053,-1638.2934615961865,-3205.8213002468706,-7024.974468347367,35251.98671245417,-1045.0334602634264,5919.054856187685,4692.480527458254,0.0,0.0,0.0,2019-03-17T21:18:24.451718,7,EyesClosed
-3832.0501246512085,-1362.5846937399738,-2903.759825677851,-6725.28227869061,35510.88696847999,-1064.881809339739,6189.957998986006,4978.828725675193,0.0,0.0,0.0,2019-03-17T21:18:24.452199,7,EyesClosed
-4062.295444285327,-1613.5947839730723,-3059.2832635978775,-6837.197463178332,35420.831790069555,-427.0077260741861,6020.710589970421,4873.328491846143,0.0,0.0,0.0,2019-03-17T21:18:24.458806,7,EyesClosed
-4365.943892710673,-1933.4035436396057,-3394.9170583387686,-7164.516408981849,35142.172591945244,-334.2032830957512,5715.855147344488,4556.358403725434,0.0,0.0,0.0,2019-03-17T21:18:24.459227,7,EyesClosed
-4184.537134711401,-1737.2222825553756,-3298.5810397363953,-7109.93344902199,35186.361990733385,-977.8664681752286,5834.3193929576155,4605.979276416216,0.0,0.0,0.0,2019-03-17T21:18:24.465466,7,EyesClosed
-3844.947081201921,-1392.223106887711,-2955.124134436147,-6782.77096542966,35465.73644468027,-1156.009871484026,6144.40514378609,4918.166091223489,0.0,0.0,0.0,2019-03-17T21:18:24.473528,7,EyesClosed
-3977.4705740774366,-1534.5143120901957,-3000.475823935965,-6789.185916088333,35465.46822374681,-531.9938697807634,6073.885390029596,4915.617992355585,-0.01,1.004,0.27,2019-03-17T21:18:24.474286,7,EyesClosed
-4333.645621972754,-1896.9925519219105,-3333.1368366642996,-7103.652608830048,35198.43193273925,-260.37547115987195,5763.218493845284,4613.221241619735,0.0,0.0,0.0,2019-03-17T21:18:24.481448,7,EyesClosed
-4252.88876925573,-1818.9626120284333,-3333.9191477202357,-7144.086914549699,35160.27750495404,-851.3555945581907,5792.208706403817,4573.569246956021,0.0,0.0,0.0,2019-03-17T21:18:24.482113,7,EyesClosed
-3886.811898566711,-1455.8808750964256,-2980.850992304205,-6817.974962946769,35439.45079320083,-1189.939819567182,6123.506262720378,4887.857125742094,0.0,0.0,0.0,2019-03-17T21:18:24.488495,7,EyesClosed
-3929.391971754071,-1499.220907595266,-2940.506093562376,-6743.945985310792,35509.4341050904,-647.1053537255948,6134.123341336649,4964.903588879537,0.0,0.0,0.0,2019-03-17T21:18:24.488991,7,EyesClosed
-4290.350292962825,-1859.106345070165,-3276.6986819146496,-7055.708116973415,35246.77875599608,-230.3794301008499,5812.548793858146,4672.654530126397,0.0,0.0,0.0,2019-03-17T21:18:24.496289,7,EyesClosed
-4301.3473512348355,-1860.0227665928326,-3369.7936975710036,-7179.13444985562,35134.12596394133,-726.1187703751052,5755.015403630186,4551.66453738982,0.0,0.0,0.0,2019-03-17T21:18:24.496950,7,EyesClosed
-3945.127599850607,-1496.0916633715228,-3039.569024988297,-6884.158478278933,35382.27503088415,-1203.395569729277,6072.499581873368,4830.234328536311,0.0,0.0,0.0,2019-03-17T21:18:24.503988,7,EyesClosed
-3891.2598957133173,-1448.1918750037999,-2906.5537937347644,-6732.434836916308,35524.81210527565,-770.5093348633451,6173.305949366802,4982.002673387847,0.0,0.0,0.0,2019-03-17T21:18:24.504509,7,EyesClosed
-4237.287251625926,-1805.6409723330705,-3223.836806277848,-7011.67518039646,35289.045904761064,-240.25890115009562,5867.802306151665,4717.514481248198,0.0,0.0,0.0,2019-03-17T21:18:24.512194,7,EyesClosed
-4332.125703349794,-1901.3511420906952,-3400.1697182857656,-7207.074130424754,35114.67994626522,-602.2677543482488,5728.573289939558,4526.585880110965,-0.006,0.998,0.272,2019-03-17T21:18:24.512872,7,EyesClosed
-3977.8729054776322,-1537.8894255029472,-3096.498918115964,-6943.904691207968,35336.7892309176,-1174.13713623728,6027.103188884639,4777.081880221592,0.0,0.0,0.0,2019-03-17T21:18:24.518848,7,EyesClosed
-3844.4106393349934,-1408.7633977846383,-2895.8473081406723,-6728.411522914354,35524.14155294199,-891.7451967889306,6192.4390426205455,4981.265065820821,0.0,0.0,0.0,2019-03-17T21:18:24.519556,7,EyesClosed
-4162.6994803785665,-1746.4759047598727,-3161.8554189032816,-6951.7054500228705,35339.76201293016,-276.0440440230422,5931.370667382559,4770.331653396089,0.0,0.0,0.0,2019-03-17T21:18:24.526098,7,EyesClosed
-4341.692249976665,-1932.5765290947593,-3412.4631777361847,-7212.974990960955,35116.13280965481,-487.24567738123864,5721.577193925046,4520.729723063675,0.0,0.0,0.0,2019-03-17T21:18:24.533734,7,EyesClosed
-4040.0107550633857,-1607.6268682035052,-3175.1547068541895,-7018.134834544044,35279.836986045484,-1132.585243294864,5966.954644555408,4707.3667892654885,0.0,0.0,0.0,2019-03-17T21:18:24.534466,7,EyesClosed
-3836.5204735422703,-1406.125891938912,-2911.471177514932,-6748.326927224032,35513.79269525918,-1018.9266227396278,6194.070719965783,4963.406022001031,0.0,0.0,0.0,2019-03-17T21:18:24.541809,7,EyesClosed
-4113.883270488175,-1700.0289797817445,-3116.302563703366,-6911.2040890698545,35381.11274017247,-371.5530480805693,5978.979883072363,4810.900069582471,0.0,0.0,0.0,2019-03-17T21:18:24.542502,7,EyesClosed
-4369.34135786788,-1960.9408928085438,-3415.4359597487405,-7212.527956071849,35123.732402769616,-409.64042063241254,5713.195289754306,4524.060132987515,0.0,0.0,0.0,2019-03-17T21:18:24.548352,7,EyesClosed
-4107.736540762966,-1684.7850900632252,-3241.651146608728,-7077.769288750803,35231.959549422216,-1055.4940766685102,5902.268696101749,4649.788695548617,0.0,0.0,0.0,2019-03-17T21:18:24.548998,7,EyesClosed
-3816.0462756212087,-1388.6021242859513,-2915.6062502391637,-6755.501837194185,35501.25336661975,-1089.915763129683,6189.466260607989,4951.939577095459,-0.002,1.002,0.264,2019-03-17T21:18:24.556634,7,EyesClosed
-4030.0195252918634,-1602.821243145614,-3043.79350469035,-6841.623108580484,35430.51009541871,-440.23995879172793,6041.967098947418,4871.316834845166,0.0,0.0,0.0,2019-03-17T21:18:24.557339,7,EyesClosed
-4337.691287719165,-1920.9312702335442,-3385.8869535788244,-7171.713670696458,35149.70512982668,-316.2324805536843,5730.227319029251,4554.860836846929,0.0,0.0,0.0,2019-03-17T21:18:24.565673,7,EyesClosed
-4174.769422384432,-1767.5983032701379,-3313.5120050325404,-7138.901309836067,35172.950944060205,-954.8218196418071,5829.066733010618,4584.543953483576,0.0,0.0,0.0,2019-03-17T21:18:24.566271,7,EyesClosed
-3842.041354422731,-1428.5893951164956,-2959.9074077495825,-6808.229602364255,35454.11353756351,-1162.491877376065,6154.619891002166,4900.01647472578,0.0,0.0,0.0,2019-03-17T21:18:24.572160,7,EyesClosed
-3976.844725232688,-1561.9175507924022,-2996.11723376718,-6809.280134353654,35458.78505215467,-562.6381114289894,6088.615189625644,4902.676332315962,0.0,0.0,0.0,2019-03-17T21:18:24.572691,7,EyesClosed
-4324.2355375570705,-1912.9293457185443,-3344.2009501696766,-7137.157873768553,35180.349371474906,-270.72432884267914,5765.14074386844,4590.176593086314,0.0,0.0,0.0,2019-03-17T21:18:24.579141,7,EyesClosed
-4232.682792268132,-1815.5204433823162,-3341.719906535138,-7174.775859686835,35146.21825769165,-826.8357308907189,5802.311694897616,4556.4254589588,0.0,0.0,0.0,2019-03-17T21:18:24.579929,7,EyesClosed
-3876.0607094837083,-1439.5864533885067,-2992.026864531859,-6851.569634863095,35417.59078712354,-1191.23622074559,6129.273012789848,4862.756116718783,0.0,0.0,0.0,2019-03-17T21:18:24.586157,7,EyesClosed
-3905.6097156536243,-1478.5008404851962,-2936.639241771608,-6760.374517485442,35499.95696544134,-667.0207580352734,6154.508132279889,4949.257367760822,0.0,0.0,0.0,2019-03-17T21:18:24.594274,7,EyesClosed
-4267.596217107322,-1853.5407607007935,-3287.1592983197334,-7076.450535827939,35231.668976744295,-242.89640699582185,5818.606116605534,4644.401925134888,-0.008,1.004,0.266,2019-03-17T21:18:24.594970,7,EyesClosed
-4273.631188110255,-1849.7633158878466,-3382.422433188252,-7197.015845419865,35118.56914980044,-703.7670259197981,5757.563502498091,4526.921156277795,0.0,0.0,0.0,2019-03-17T21:18:24.600641,7,EyesClosed
-3916.450311714448,-1488.1344423454336,-3059.8867606981707,-6903.805661655148,35362.51608878566,-1196.041845803481,6073.952445262962,4806.183851502401,0.0,0.0,0.0,2019-03-17T21:18:24.601355,7,EyesClosed
-3840.655546266502,-1419.7157525677387,-2909.1242443471247,-6729.596165370484,35520.252349406765,-784.8815065481075,6189.488612352445,4974.894818651059,0.0,0.0,0.0,2019-03-17T21:18:24.608687,7,EyesClosed
-4196.741187183999,-1776.0696144186993,-3219.5676230868844,-7004.410863448485,35292.778646085106,-244.39397387432743,5887.44948952788,4716.7545219367175,0.0,0.0,0.0,2019-03-17T21:18:24.609328,7,EyesClosed
-4320.681610188676,-1905.32975260374,-3415.5030149821064,-7223.122682943665,35100.66540249174,-587.5379547522015,5726.539281194125,4505.4634816007,0.0,0.0,0.0,2019-03-17T21:18:24.616568,7,EyesClosed
-3963.970120426431,-1542.1809604383661,-3107.6077351102517,-6953.0912581791,35323.668756922336,-1163.9223890212047,6029.628936008088,4757.300586378645,0.0,0.0,0.0,2019-03-17T21:18:24.617237,7,EyesClosed
-3810.65950520748,-1390.5020225646524,-2883.4197382235216,-6712.586487839996,35530.400041389476,-902.5857928497545,6216.8024440768295,4984.573124000207,0.0,0.0,0.0,2019-03-17T21:18:24.624112,7,EyesClosed
-4123.203947926038,-1707.1368345185322,-3137.0896860468015,-6921.195318841376,35351.496678769196,-269.6514451088244,5962.5737026421675,4784.793232058672,0.0,0.0,0.0,2019-03-17T21:18:24.625017,7,EyesClosed
-4316.345371764347,-1894.3773978206395,-3390.513764681073,-7181.70490046798,35120.647862034784,-440.95521461429774,5741.671412190368,4529.759827823618,0.0,0.0,0.0,2019-03-17T21:18:24.631349,7,EyesClosed
-4005.2761441798384,-1576.4908881772624,-3147.4385437296087,-6983.66844459396,35283.21209945823,-1069.1956960196133,5988.121746554583,4718.3414957930445,-0.004,1.006,0.272,2019-03-17T21:18:24.632278,7,EyesClosed
-3771.2533797327737,-1343.3174900194992,-2862.967892046916,-6698.862516744437,35534.49041062479,-971.2280000720025,6238.327173987291,4998.252391606855,0.0,0.0,0.0,2019-03-17T21:18:24.639463,7,EyesClosed
-4039.161388774084,-1619.3391822980861,-3061.853714210238,-6855.4364866538635,35413.45571439931,-318.9817451216871,6036.5356250447785,4858.241064338811,0.0,0.0,0.0,2019-03-17T21:18:24.640306,7,EyesClosed
-4309.125758305283,-1889.1917931070082,-3373.5264388950395,-7164.382298515117,35154.95778977368,-327.07307661450824,5767.621787502979,4569.054194576049,0.0,0.0,0.0,2019-03-17T21:18:24.646619,7,EyesClosed
-4078.254589826416,-1649.1340576570103,-3222.1604254437,-7051.327175060174,35248.92452346379,-977.7770611974074,5945.742839067321,4679.918847074371,0.0,0.0,0.0,2019-03-17T21:18:24.647287,7,EyesClosed
-3794.4991939662928,-1360.8859611613705,-2905.2126890674463,-6745.2423864892,35516.31844238263,-1061.886675582728,6234.7061913855305,4976.258275062833,0.0,0.0,0.0,2019-03-17T21:18:24.653646,7,EyesClosed
-4011.959315771975,-1589.566658683617,-3038.2949755543445,-6835.319916644087,35445.664578159405,-436.0601825785855,6087.341140191691,4895.546125834719,0.0,0.0,0.0,2019-03-17T21:18:24.661454,7,EyesClosed
-4327.8788719032855,-1909.777749750346,-3375.38163368483,-7158.660251934559,35169.53112715854,-276.4016719343271,5781.233999876261,4587.136755840392,0.0,0.0,0.0,2019-03-17T21:18:24.662376,7,EyesClosed
-4170.589646171289,-1743.3913640250403,-3309.46633928613,-7128.954783553456,35184.08211279895,-901.378798649168,5871.602102709067,4610.136700884903,0.0,0.0,0.0,2019-03-17T21:18:24.669535,7,EyesClosed
-3829.837301950133,-1395.4641098337306,-2964.4224601295546,-6795.086776624535,35458.69564517685,-1137.949661964138,6189.17568793007,4924.648097115529,0.0,0.0,0.0,2019-03-17T21:18:24.670190,7,EyesClosed
-3940.1878643259843,-1508.675695499861,-2975.8665532906716,-6766.00715708818,35487.28352633519,-540.48753267378,6155.156332869093,4952.766591640305,-0.002,1.01,0.274,2019-03-17T21:18:24.678761,7,EyesClosed
-4291.311417974403,-1860.0004148483772,-3316.5965457673724,-7085.5923993101605,35218.25793007111,-220.29879335150642,5836.576919147601,4645.407753635377,0.0,0.0,0.0,2019-03-17T21:18:24.679482,7,EyesClosed
-4233.576862046345,-1791.693483792959,-3347.777229282526,-7157.430905989517,35149.660426337774,-780.5676198682332,5826.540985887169,4571.088203321481,0.0,0.0,0.0,2019-03-17T21:18:24.684578,7,EyesClosed
-3866.2259419233733,-1429.4387614057973,-2996.83248958975,-6837.555091089617,35418.37309817947,-1182.0496537744586,6150.93185316704,4870.087488900124,0.0,0.0,0.0,2019-03-17T21:18:24.685606,7,EyesClosed
-3884.979055521376,-1460.6194449209506,-2932.370058580644,-6742.314307965554,35508.45062833436,-686.6902931559436,6186.202905917515,4962.735469667372,0.0,0.0,0.0,2019-03-17T21:18:24.691816,7,EyesClosed
-4241.8246557503535,-1812.2123852029308,-3264.3381672308647,-7038.094942342633,35256.83704100097,-222.98100268614326,5871.892675386986,4677.393099950922,0.0,0.0,0.0,2019-03-17T21:18:24.692523,7,EyesClosed
-4270.166667719683,-1839.9061965830563,-3380.902514565291,-7177.189848088008,35129.05211794998,-660.6728626099662,5789.682959280367,4535.750095337641,0.0,0.0,0.0,2019-03-17T21:18:24.699639,7,EyesClosed
-3910.527099433792,-1467.6155409354617,-3045.8498651802383,-6877.385899708975,35379.81633899407,-1160.815496541917,6109.8493468581855,4818.678476652918,0.0,0.0,0.0,2019-03-17T21:18:24.700315,7,EyesClosed
-3832.2512903513066,-1388.51271730813,-2889.09708131517,-6699.868345244926,35541.0394717502,-779.1818117120042,6232.403961706635,4992.485641537385,0.0,0.0,0.0,2019-03-17T21:18:24.706452,7,EyesClosed
-4192.0473208483845,-1754.0307943857665,-3206.7377217695384,-6979.868648036558,35306.949652069765,-229.4630085781823,5923.435798100924,4728.690353475851,0.0,0.0,0.0,2019-03-17T21:18:24.707197,7,EyesClosed
-4319.116988076805,-1886.3084180722735,-3405.6905991662265,-7198.558115787282,35116.98217594411,-537.3582884500371,5759.686918221345,4517.041685228549,0.0,1.006,0.274,2019-03-17T21:18:24.713387,7,EyesClosed
-3975.458917076459,-1538.8505505145254,-3112.7039328460614,-6950.140827910999,35328.072050580035,-1132.205263639124,6051.980680463395,4755.13246716648,0.0,0.0,0.0,2019-03-17T21:18:24.721276,7,EyesClosed
-3808.714903439868,-1375.347539823954,-2883.7773661348065,-6708.1831941823,35539.676015338424,-904.4856911284556,6248.452514225544,4990.049301391757,0.0,0.0,0.0,2019-03-17T21:18:24.722199,7,EyesClosed
-4132.256404430438,-1709.7743403642585,-3153.0041280989803,-6931.544176524184,35355.78821370461,-287.51048892861473,5982.399699974025,4781.462822134831,0.0,0.0,0.0,2019-03-17T21:18:24.729258,7,EyesClosed
-4339.948813909151,-1922.294726645318,-3423.192015074732,-7209.6892845260245,35118.211521889156,-433.8697116219654,5747.013479115186,4515.432359627767,0.0,0.0,0.0,2019-03-17T21:18:24.729983,7,EyesClosed
-4051.7230691579666,-1624.949470156368,-3203.340256612332,-7031.076494583666,35261.12857593639,-1074.8283356223508,5985.573647686679,4686.512611688687,0.0,0.0,0.0,2019-03-17T21:18:24.735687,7,EyesClosed
-3794.074510821642,-1366.6303594863844,-2896.987247107893,-6724.410560656854,35526.84611402108,-999.4359015746,6260.745973675964,4979.566333242218,0.0,0.0,0.0,2019-03-17T21:18:24.736340,7,EyesClosed
-4043.9446620875196,-1624.4577317783514,-3071.2190951370117,-6859.795076822648,35420.54121739164,-348.48604780269244,6073.728927818409,4857.4587532828755,0.0,0.0,0.0,2019-03-17T21:18:24.743949,7,EyesClosed
-4332.818607427908,-1917.8243777542566,-3391.9219245817576,-7182.867191179656,35146.508830369574,-339.8806261873992,5782.128069654474,4549.8763978333955,0.0,0.0,0.0,2019-03-17T21:18:24.744588,7,EyesClosed
-4127.383724139181,-1695.5362791462278,-3257.8561613388256,-7084.765384765314,35215.039278869546,-985.8013374568627,5934.321097650659,4636.86938725345,0.0,0.0,0.0,2019-03-17T21:18:24.752017,7,EyesClosed
-3808.2231650618514,-1373.5594002675296,-2905.637372212097,-6747.164636512356,35508.11535216753,-1078.0022833350042,6254.7780579063965,4959.293301021255,0.002,1.0,0.27,2019-03-17T21:18:24.752731,7,EyesClosed
-3993.4297196185257,-1570.411213685419,-3002.8674605926826,-6811.895288454925,35469.849165660045,-453.203970575806,6134.235100058926,4903.883326516549,0.0,0.0,0.0,2019-03-17T21:18:24.759065,7,EyesClosed
-4321.776845666986,-1904.3462758477065,-3350.6829560617157,-7152.312356509252,35183.500967443106,-273.987683533154,5809.285439167672,4579.71597668123,0.0,0.0,0.0,2019-03-17T21:18:24.759688,7,EyesClosed
-4180.916152109641,-1756.7130037204033,-3284.387682007275,-7143.818693616235,35185.19970002171,-891.8569555112072,5884.208486581861,4585.14745058387,0.0,0.0,0.0,2019-03-17T21:18:24.766494,7,EyesClosed
-3821.2095285903847,-1387.41748182982,-2914.0639798717475,-6801.121747627467,35474.69949420685,-1146.689194046163,6221.585717390266,4913.047541743224,0.0,0.0,0.0,2019-03-17T21:18:24.767353,7,EyesClosed
-3907.353151721138,-1482.2782852981431,-2912.3652472931444,-6766.208322788278,35513.256253392254,-568.0472335871737,6188.527487340866,4951.559597439718,0.0,0.0,0.0,2019-03-17T21:18:24.773649,7,EyesClosed
-4272.468897398579,-1851.260882766352,-3275.2458185250543,-7103.429091385495,35221.655395228314,-237.3531743709057,5842.723648872811,4628.219262149246,0.0,0.0,0.0,2019-03-17T21:18:24.781638,7,EyesClosed
-4231.542853300912,-1796.074425706199,-3320.0610661579453,-7173.501810252883,35147.827583292434,-764.2284946714037,5831.2125004783275,4555.799610114052,0.0,0.0,0.0,2019-03-17T21:18:24.782657,7,EyesClosed
-3854.580683062158,-1429.1034852389678,-2958.856875760183,-6835.655192810917,35424.765697093695,-1157.5521418514422,6172.210713888492,4874.580189535641,0.0,0.0,0.0,2019-03-17T21:18:24.788714,7,EyesClosed
-3848.4786568258596,-1429.572871872529,-2868.2652554828237,-6714.464034374241,35532.99284374629,-666.0819847681505,6229.386476205168,4994.720815982916,0.0,0.0,0.0,2019-03-17T21:18:24.789366,7,EyesClosed
-4219.092931639306,-1806.266821177819,-3210.11283518229,-7023.074570068667,35276.17129995481,-194.81780467245636,5904.123890891539,4706.852699143016,0.0,1.004,0.27,2019-03-17T21:18:24.796273,7,EyesClosed
-4276.827487567364,-1854.1442578010867,-3348.4477816161852,-7184.610627247171,35130.52733308403,-619.45624583438,5801.864660008509,4551.262205989624,0.0,0.0,0.0,2019-03-17T21:18:24.797243,7,EyesClosed
-3911.644686656557,-1476.0197968506573,-3024.816873647794,-6892.808603383137,35370.09333015601,-1145.1469236787468,6123.238041786914,4832.5142064707525,0.0,0.0,0.0,2019-03-17T21:18:24.804288,7,EyesClosed
-3814.571060487159,-1382.7683189831162,-2846.762877316818,-6692.916952719325,35546.046262508185,-782.1322419801047,6265.529246989399,5024.783912275304,0.0,0.0,0.0,2019-03-17T21:18:24.805186,7,EyesClosed
-4160.196084999572,-1738.1163523335879,-3141.5823866823184,-6951.638394789505,35330.37428025893,-209.30173507949533,5980.902133095519,4781.507525623742,0.0,0.0,0.0,2019-03-17T21:18:24.812370,7,EyesClosed
-4309.684551916665,-1880.5416680028045,-3357.366127653853,-7179.961464400467,35122.815981246946,-486.8656977254984,5803.2728199091935,4559.062964804526,0.0,0.0,0.0,2019-03-17T21:18:24.813097,7,EyesClosed
-3993.988513229908,-1560.0847077470671,-3101.2151361960337,-6961.026127460734,35296.84666357597,-1113.9438884191381,6068.364509149135,4766.80007777215,0.0,0.0,0.0,2019-03-17T21:18:24.818864,7,EyesClosed
-3785.7373101398125,-1360.1036501054348,-2840.482037124877,-6687.999568939158,35531.785849545704,-892.7063218005088,6292.619561269232,5027.220252420932,0.0,0.0,0.0,2019-03-17T21:18:24.819710,7,EyesClosed
-4096.873592957687,-1677.2525521817868,-3082.909057487137,-6886.036024813178,35364.28187659763,-260.7778025600675,6046.951537960951,4840.471427496842,0.0,0.0,0.0,2019-03-17T21:18:24.826907,7,EyesClosed
-4329.644659715254,-1890.197621607497,-3355.354470652875,-7164.6058159596705,35124.984100459114,-379.64437957339044,5809.866584523509,4573.52454346711,0.0,0.0,0.0,2019-03-17T21:18:24.827552,7,EyesClosed
-4054.740554659433,-1606.665743191927,-3155.6416339447064,-7005.014360548778,35250.24327638665,-1032.1812072016248,6020.6211829926,4720.487263260754,-0.002,1.008,0.262,2019-03-17T21:18:24.834012,7,EyesClosed
-3791.2134875313627,-1346.6255481988846,-2845.377069160589,-6694.615685297929,35514.373840615015,-988.3047328358571,6297.9169247051395,5015.619697048628,0.0,0.0,0.0,2019-03-17T21:18:24.842416,7,EyesClosed
-4020.050647264796,-1597.635638431983,-2994.977294799959,-6803.602791262007,35429.928950062866,-328.59299523746915,6133.519844236355,4913.785149310249,0.0,0.0,0.0,2019-03-17T21:18:24.843139,7,EyesClosed
-4321.463921244612,-1903.7427787474132,-3324.106731904356,-7127.479568419406,35149.19103970421,-283.84480283794437,5833.8500063240535,4597.396206545378,0.0,0.0,0.0,2019-03-17T21:18:24.848472,7,EyesClosed
-4125.48382586048,-1694.1057675010882,-3208.7717305149713,-7053.450590783428,35202.43289499675,-943.4894852029664,5968.653377134011,4660.226960209246,0.0,0.0,0.0,2019-03-17T21:18:24.849477,7,EyesClosed
-3807.2843917947284,-1370.6313217438844,-2862.8337815801838,-6716.743912308683,35486.277697834696,-1074.113079799781,6282.762441964441,4972.927865138992,0.0,0.0,0.0,2019-03-17T21:18:24.856527,7,EyesClosed
-3968.9545594399647,-1534.7154777902936,-2938.6732505170407,-6753.847808104492,35458.53918296566,-446.8337234060435,6180.167934914582,4934.661678631506,0.0,0.0,0.0,2019-03-17T21:18:24.857175,7,EyesClosed
-4299.9391913341515,-1869.9692928754441,-3279.582056949384,-7081.278512630286,35179.924688330255,-224.85854922038905,5858.705146158355,4616.238727121202,0.0,0.0,0.0,2019-03-17T21:18:24.864479,7,EyesClosed
-4185.721777167532,-1743.145494836032,-3250.256568224021,-7087.112317933121,35165.01607477857,-824.2429285339033,5919.2560218877825,4608.7508927286735,0.0,0.0,0.0,2019-03-17T21:18:24.865161,7,EyesClosed
-3827.1550926154964,-1385.7634527401274,-2894.1262238176137,-6756.1947412723,35446.93862759336,-1122.303440845423,6247.8490171252515,4929.587832640152,0.0,0.0,0.0,2019-03-17T21:18:24.871106,7,EyesClosed
-3889.6282183680796,-1459.2559885091769,-2874.859020097139,-6700.1812696673005,35502.59447128707,-549.1153060335286,6242.350487989246,4988.507031024341,0.0,1.012,0.256,2019-03-17T21:18:24.871828,7,EyesClosed
-4253.581673333844,-1823.6341266195927,-3224.7979312894263,-7025.846186381124,35232.853619200425,-181.47381323263804,5921.625306800045,4681.952855819804,0.0,0.0,0.0,2019-03-17T21:18:24.879161,7,EyesClosed
-4247.345536630814,-1808.300829923252,-3307.0523508849565,-7135.7273621234135,35132.4942865961,-706.3598282766138,5879.134640590506,4576.676139435308,0.0,0.0,0.0,2019-03-17T21:18:24.879868,7,EyesClosed
-3881.5145351308033,-1436.479560909219,-2972.3126259222777,-6824.904003727914,35391.77452227766,-1144.3422608783558,6203.234935192459,4874.043747668713,0.0,0.0,0.0,2019-03-17T21:18:24.887161,7,EyesClosed
-3859.878046498066,-1421.0792089795125,-2865.1360112590805,-6693.721615519717,35516.65371854946,-683.6057524211112,6277.733299461997,5006.187260888489,0.0,0.0,0.0,2019-03-17T21:18:24.887800,7,EyesClosed
-4210.6439722352,-1784.4738703338946,-3189.951561683603,-6987.021206262256,35271.9244685083,-186.01121735706536,5967.535789911246,4734.255937845223,0.0,0.0,0.0,2019-03-17T21:18:24.894418,7,EyesClosed
-4300.006246567517,-1864.269598039341,-3349.7665345390483,-7171.043118362799,35107.41562931724,-587.9179344079416,5847.283404741694,4560.851104360951,0.0,0.0,0.0,2019-03-17T21:18:24.895346,7,EyesClosed
-3943.6747364610123,-1499.600887251006,-3033.243481307445,-6888.382957980986,35338.95735012977,-1126.527920547476,6159.604330015699,4832.2906890262,0.0,0.0,0.0,2019-03-17T21:18:24.902423,7,EyesClosed
-3818.817891933667,-1375.1240223794011,-2845.3994209050443,-6676.823696711504,35520.72173604032,-796.0350270313057,6311.5961923117875,5034.819845535737,0.0,0.0,0.0,2019-03-17T21:18:24.908645,7,EyesClosed
-4169.941445582085,-1721.5984131811158,-3142.09647680479,-6929.733685223304,35309.25188174866,-212.6544967477914,6020.956459159429,4795.4103106749435,0.0,0.0,0.0,2019-03-17T21:18:24.909436,7,EyesClosed
-4342.921595921707,-1893.773900720346,-3366.932674280724,-7167.735060183413,35102.16296937024,-457.78607818914395,5833.335916201582,4562.639243917375,-0.002,1.012,0.25,2019-03-17T21:18:24.916815,7,EyesClosed
-4031.2488712369054,-1588.31496099412,-3107.85360429926,-6951.817208745148,35276.41716914382,-1080.4833269695434,6090.380977437613,4761.636824802974,0.0,0.0,0.0,2019-03-17T21:18:24.917534,7,EyesClosed
-3829.434970549938,-1393.8771359774037,-2847.5675401172093,-6688.7371765061835,35503.622651532016,-914.4545691555226,6308.243430643491,5011.104644668656,0.0,0.0,0.0,2019-03-17T21:18:24.923789,7,EyesClosed
-4108.451796585536,-1685.2768284412418,-3070.9732259480033,-6866.612358881517,35356.034082893624,-277.98864579065395,6077.864000542641,4839.800875163183,0.0,0.0,0.0,2019-03-17T21:18:24.924533,7,EyesClosed
-4352.0634594039275,-1928.8661395151782,-3372.967645283657,-7169.2996822952855,35092.283498321,-367.1721061673291,5804.457462365325,4541.561548896021,0.0,0.0,0.0,2019-03-17T21:18:24.931372,7,EyesClosed
-4083.216677095494,-1643.0990866540774,-3176.6746254771506,-7012.39043621903,35216.46979051468,-1010.2317941465133,6017.782511446776,4686.981998322249,0.0,0.0,0.0,2019-03-17T21:18:24.932330,7,EyesClosed
-3809.1172348400637,-1361.2659408171107,-2860.8891798125724,-6698.527240577608,35488.19994785785,-1005.7390935109966,6300.710892762053,4986.920057168014,0.0,0.0,0.0,2019-03-17T21:18:24.939433,7,EyesClosed
-4031.8523683371986,-1594.3275802525975,-3007.3825129726547,-6802.038169150134,35410.75115332021,-357.76202175164485,6141.655879218088,4890.53933507673,0.0,0.0,0.0,2019-03-17T21:18:24.940143,7,EyesClosed
-4336.596052240855,-1898.356008333684,-3330.94636570768,-7120.6399346160815,35136.24937966459,-276.58048588996957,5843.282442484194,4582.264075549135,0.0,0.0,0.0,2019-03-17T21:18:24.947466,7,EyesClosed
-4141.912358035131,-1700.1854419929318,-3224.172082444678,-7054.858750684113,35182.04810405351,-917.6955721015421,5976.297673737726,4646.011250735671,0.0,0.0,0.0,2019-03-17T21:18:24.948104,7,EyesClosed
-3820.784845445734,-1377.0909758914681,-2888.9182673595274,-6732.0548572605685,35456.6169329425,-1085.2442485385238,6289.62442751222,4956.812257386716,-0.002,1.008,0.254,2019-03-17T21:18:24.954073,7,EyesClosed
-3975.5036205653696,-1537.9117772474024,-2950.407916356077,-6753.266662748655,35446.75981363771,-469.073709139074,6207.951153272528,4941.680126390473,0.0,0.0,0.0,2019-03-17T21:18:24.954777,7,EyesClosed
-4312.925554862685,-1883.7379674599133,-3297.6199147248167,-7079.825649240691,35169.97816204765,-217.90715669478854,5890.556382007168,4633.360163373967,0.0,0.0,0.0,2019-03-17T21:18:24.960948,7,EyesClosed
-4214.0637891368615,-1777.723643508392,-3292.255496055543,-7109.709931577437,35136.942283742705,-803.4781579349229,5930.610708071078,4608.169747372835,0.0,0.0,0.0,2019-03-17T21:18:24.968895,7,EyesClosed
-3854.0218894507757,-1414.2172234317331,-2940.0367069288145,-6784.2014770748,35410.72880157576,-1125.946775191638,6256.9461771185615,4918.322553434677,0.0,0.0,0.0,2019-03-17T21:18:24.969703,7,EyesClosed
-3900.20059349544,-1463.5698751890511,-2906.218517567935,-6715.961601252748,35477.895793663956,-576.2726755467266,6259.069592841815,4986.048339134257,0.0,0.0,0.0,2019-03-17T21:18:24.976281,7,EyesClosed
-4256.9120832576855,-1821.1530829850535,-3253.5422746589516,-7034.898642885523,35214.189912580245,-181.42910974372742,5935.036353473229,4684.098623287514,0.0,0.0,0.0,2019-03-17T21:18:24.977289,7,EyesClosed
-4263.438792638635,-1829.624394133615,-3339.551787322973,-7150.613623930648,35102.00650715906,-679.805955863709,5878.039405112196,4567.221351530713,0.0,0.0,0.0,2019-03-17T21:18:24.983655,7,EyesClosed
-3914.483358202381,-1475.7739276616487,-3012.813986875294,-6852.64251859695,35344.47823101023,-1145.5716068233976,6189.421557119079,4848.451000267387,0.0,0.0,0.0,2019-03-17T21:18:24.984305,7,EyesClosed
-3854.357165617605,-1420.8780432794147,-2873.5849706631866,-6685.2726561156105,35493.58671827158,-696.7262264163764,6293.267761858436,5008.735359756393,0.0,0.0,0.0,2019-03-17T21:18:24.991611,7,EyesClosed
-4213.504995525479,-1782.6633790330147,-3194.3101518523877,-6966.792877530203,35257.59700031245,-175.14826955178614,5985.595999431133,4741.721420493295,-0.002,1.006,0.25,2019-03-17T21:18:24.992255,7,EyesClosed
-4300.855612856819,-1863.911970128056,-3362.6858428342157,-7157.319147267241,35091.61294598734,-542.9015210749533,5855.799419379166,4556.581921169987,0.0,0.0,0.0,2019-03-17T21:18:24.999478,7,EyesClosed
-3947.005146384853,-1501.4560820407967,-3062.948949688548,-6895.155536550944,35308.69308813728,-1109.3394290613448,6150.17189385556,4804.351008457066,0.0,0.0,0.0,2019-03-17T21:18:24.999917,7,EyesClosed
-3820.8966041680105,-1369.5584380100297,-2872.1097555291362,-6682.478688058697,35494.43608456088,-817.8950331085961,6308.131671921215,5009.003580689858,0.0,0.0,0.0,2019-03-17T21:18:25.006458,7,EyesClosed
-4147.500294148957,-1705.6839711289372,-3149.0478693303908,-6922.223499086321,35296.10905600894,-225.50674980959295,6027.393761562558,4782.781575057695,0.0,0.0,0.0,2019-03-17T21:18:25.007352,7,EyesClosed
-4321.843900900352,-1893.773900720346,-3391.1172617813663,-7171.5348567408155,35075.966724868624,-436.9319006123425,5819.902517783942,4537.381772682878,0.0,0.0,0.0,2019-03-17T21:18:25.014318,7,EyesClosed
-4005.991400002408,-1563.5268763931842,-3133.4239999561314,-6956.175798913932,35249.52802056408,-1065.7982308624066,6079.026291254318,4736.915795435405,0.0,0.0,0.0,2019-03-17T21:18:25.015007,7,EyesClosed
-3782.719824638346,-1332.320431747488,-2862.632615880086,-6682.65750201434,35483.43902628887,-935.956947321528,6312.825538256829,4996.732472983894,0.0,0.0,0.0,2019-03-17T21:18:25.021445,7,EyesClosed
-4072.107860101207,-1638.405220318463,-3075.398871350154,-6854.430658153375,35343.248885065186,-289.4550906962265,6094.896029817585,4838.236253051312,0.0,0.0,0.0,2019-03-17T21:18:25.029153,7,EyesClosed
-4339.881758675785,-1904.7486072479019,-3369.413717915263,-7155.955690855467,35082.98517262759,-340.7299924767009,5832.10657025654,4549.2281972441915,0.0,0.0,0.0,2019-03-17T21:18:25.029985,7,EyesClosed
-4086.547087019335,-1636.7735429732256,-3189.1245471387565,-7020.0570845672,35188.86538611238,-987.9694566690275,6030.85828195313,4677.571913906564,0.0,1.004,0.248,2019-03-17T21:18:25.035967,7,EyesClosed
-3789.6041619305806,-1346.8267138989825,-2860.2856827122787,-6699.04133070008,35468.619819715,-1011.3493813692787,6327.130654708226,4986.338911812176,0.0,0.0,0.0,2019-03-17T21:18:25.036718,7,EyesClosed
-4002.5939348452016,-1575.8426875880584,-2987.02007377387,-6787.241314320721,35406.12434221797,-359.8407339859884,6185.465298350489,4908.823062041171,0.0,0.0,0.0,2019-03-17T21:18:25.043780,7,EyesClosed
-4326.962450380618,-1903.2733921138517,-3335.3049558764646,-7125.758484096347,35120.156123656765,-253.82641003446702,5869.545742219179,4582.755813927151,0.0,0.0,0.0,2019-03-17T21:18:25.044687,7,EyesClosed
-4146.181541226094,-1710.8695758425686,-3245.339184443854,-7071.890779959057,35155.449528151694,-880.278751883358,5984.634874419556,4630.2979743835895,0.0,0.0,0.0,2019-03-17T21:18:25.051879,7,EyesClosed
-3801.3388277696167,-1364.12696410739,-2890.1699650490245,-6728.813854314549,35445.97750258178,-1066.2005622626023,6315.127767935725,4959.717984165905,0.0,0.0,0.0,2019-03-17T21:18:25.052517,7,EyesClosed
-3933.5717479672135,-1503.445387297319,-2938.6732505170407,-6737.843959074493,35445.39635722594,-461.4741160242696,6245.882063613184,4960.276777777288,0.0,0.0,0.0,2019-03-17T21:18:25.059187,7,EyesClosed
-4292.496060430534,-1863.263769538852,-3294.4459670121632,-7074.774154993792,35155.09190024041,-188.15698482477487,5909.823585727642,4638.121084942947,0.0,0.0,0.0,2019-03-17T21:18:25.059862,7,EyesClosed
-4220.031704906429,-1784.5409255672605,-3307.544089262973,-7123.411550928539,35101.917100181236,-764.5414190937781,5924.978068468341,4587.829659918507,0.0,0.0,0.0,2019-03-17T21:18:25.066710,7,EyesClosed
-3854.0889446841416,-1407.3999413728645,-2946.339898865211,-6784.268532308166,35387.03595245313,-1104.757321448007,6266.065688856326,4911.214698697889,0.0,0.0,0.0,2019-03-17T21:18:25.067514,7,EyesClosed
-3876.485392628359,-1446.9178255698473,-2884.1349940460914,-6693.766319008627,35475.1241773515,-572.3611202670479,6292.820726969329,5003.125071898112,-0.002,1.01,0.252,2019-03-17T21:18:25.074913,7,EyesClosed
-4242.830484250842,-1821.845987063168,-3231.034067992457,-7013.239802508331,35209.227825311165,-155.21051349765224,5965.144153254528,4700.6165624399855,0.0,0.0,0.0,2019-03-17T21:18:25.075250,7,EyesClosed
-4251.03357446594,-1822.717705096925,-3323.235013870599,-7131.234661487897,35098.74315246858,-621.9149377244637,5911.0976351615955,4582.3981860158665,0.0,0.0,0.0,2019-03-17T21:18:25.082725,7,EyesClosed
-3893.048035269742,-1461.6476251658949,-2992.2056784875012,-6833.554128832117,35345.77463218864,-1108.4006557942218,6231.37578146169,4863.426669052443,0.0,0.0,0.0,2019-03-17T21:18:25.088832,7,EyesClosed
-3839.2250346213623,-1414.2172234317331,-2863.8396100806726,-6679.41649906832,35482.94728791086,-712.0818748571724,6326.303640163379,5012.333990613698,0.0,0.0,0.0,2019-03-17T21:18:25.089208,7,EyesClosed
-4197.568201728845,-1779.981169698378,-3183.3801488137424,-6961.406107116474,35248.20926764122,-181.29499927699558,6019.302430069737,4747.3987635849435,0.0,0.0,0.0,2019-03-17T21:18:25.096148,7,EyesClosed
-4296.2958569879365,-1869.0305196083214,-3348.8277612719253,-7145.539777939293,35086.829672673906,-500.3214478875933,5890.1987540958835,4568.76362189813,0.0,0.0,0.0,2019-03-17T21:18:25.096816,7,EyesClosed
-3961.2208558584284,-1524.7465997632266,-3065.0947171562575,-6900.564658709128,35287.45893090474,-1092.463861997588,6171.69662376602,4798.830127576605,0.0,0.0,0.0,2019-03-17T21:18:25.104257,7,EyesClosed
-3810.9277261409434,-1378.968522425714,-2847.321670928201,-6671.615740253418,35488.06583739112,-835.1729315725484,6350.711745108574,5018.748941272372,0.0,0.0,0.0,2019-03-17T21:18:25.104943,7,EyesClosed
-4128.635421828678,-1707.8297385966468,-3106.9595345210478,-6892.450975471852,35306.16734101383,-222.84689221941142,6086.11179424665,4809.335447470599,0.0,0.0,0.0,2019-03-17T21:18:25.112212,7,EyesClosed
-4315.1383775637605,-1897.037255410821,-3358.7295840656266,-7154.145199554587,35077.48664349159,-403.80661532957737,5869.635149197001,4553.787953113074,0.0,0.0,0.0,2019-03-17T21:18:25.112849,7,EyesClosed
-4019.648315864601,-1586.5268214376954,-3127.009049297458,-6966.94933974139,35228.15975286481,-1039.2667101939571,6107.25654450137,4729.852644187527,0.004,1.012,0.254,2019-03-17T21:18:25.118917,7,EyesClosed
-3802.3223045256505,-1364.1046123629346,-2849.7133075849188,-6688.491307317175,35471.86082266102,-939.3544124787346,6350.957614297583,4999.213516618433,0.0,0.0,0.0,2019-03-17T21:18:25.119557,7,EyesClosed
-4060.3731942621703,-1630.827978948114,-3035.277490052878,-6827.832082251559,35361.197335862795,-282.6825121262684,6160.319585838269,4870.623930767051,0.0,0.0,0.0,2019-03-17T21:18:25.126577,7,EyesClosed
-4326.314249791414,-1907.9225549605555,-3338.680069289216,-7135.615603401137,35097.62556524582,-298.61930592290236,5889.5505535066795,4576.989063857683,0.0,0.0,0.0,2019-03-17T21:18:25.127046,7,EyesClosed
-4097.030055168874,-1665.5625898316612,-3180.6755877346504,-7020.593526434127,35185.64673491081,-949.502104461444,6061.413116623535,4683.539829676131,0.0,0.0,0.0,2019-03-17T21:18:25.134815,7,EyesClosed
-3794.9685805998542,-1359.2989873050437,-2851.121467485603,-6698.862516744437,35459.79088065516,-1017.4067041166669,6353.393954443211,4989.848135691659,0.0,0.0,0.0,2019-03-17T21:18:25.135501,7,EyesClosed
-3994.7261207969336,-1567.1255072504887,-2971.9773497554484,-6777.093622338012,35396.803664780105,-386.1710889543401,6211.527432385377,4917.204966211912,0.0,0.0,0.0,2019-03-17T21:18:25.141126,7,EyesClosed
-4303.381359980269,-1880.2734470693408,-3302.8949264162693,-7095.203649425942,35125.74405977059,-225.28323236503988,5911.052931672684,4611.5672125300425,0.0,0.0,0.0,2019-03-17T21:18:25.141751,7,EyesClosed
-4159.6819948771,-1730.7402766633365,-3241.941719286647,-7076.137611405566,35132.82956276293,-852.2273125919477,5994.939028613452,4626.207605148269,0.0,0.0,0.0,2019-03-17T21:18:25.148528,7,EyesClosed
-3815.1522058429964,-1380.9801794266916,-2888.9629708484376,-6739.386229441909,35417.859008057,-1079.4551467245992,6318.748750537486,4945.725792136883,0.0,0.0,0.0,2019-03-17T21:18:25.156395,7,EyesClosed
-3916.070332058708,-1473.2705322826544,-2902.8657558996388,-6713.838185529493,35447.899752604935,-473.7005202413226,6280.191991352081,4971.497353493852,0.0,1.002,0.262,2019-03-17T21:18:25.157043,7,EyesClosed
-4260.711879815088,-1832.9324523130003,-3243.908672798714,-7034.272794040775,35179.54470867452,-153.154153007764,5962.774868342265,4664.49614340021,0.0,0.0,0.0,2019-03-17T21:18:25.164470,7,EyesClosed
-4210.30869606837,-1784.0268354447885,-3279.4702982271074,-7104.658437330537,35110.030783418515,-714.3394010471584,5960.629100874556,4593.886982665895,0.0,0.0,0.0,2019-03-17T21:18:25.165304,7,EyesClosed
-3848.3445463591274,-1421.8838717799035,-2938.025049927837,-6787.554238743096,35377.24588838171,-1098.856460911806,6287.411604811145,4897.7813002802495,0.0,0.0,0.0,2019-03-17T21:18:25.170996,7,EyesClosed
-3859.743936031334,-1437.418334176342,-2865.2701217258123,-6677.449545556253,35477.672276219404,-587.7838239412098,6333.567957111354,5005.9637434439355,0.0,0.0,0.0,2019-03-17T21:18:25.171762,7,EyesClosed
-4233.062771923873,-1810.267783435319,-3218.584146330851,-6995.626627877549,35207.30557528801,-153.08709777439807,5996.168374558494,4702.069425829581,0.0,0.0,0.0,2019-03-17T21:18:25.178942,7,EyesClosed
-4273.117097987783,-1849.0480600652768,-3342.748086780082,-7142.187016270997,35072.412797500234,-603.6535625044778,5908.035446171218,4558.347708981956,0.0,0.0,0.0,2019-03-17T21:18:25.179798,7,EyesClosed
-3902.905154574532,-1476.4668317397634,-3010.556460685308,-6837.488035856251,35323.9369778558,-1098.1859085781466,6231.174615761593,4844.7182589433505,0.0,0.0,0.0,2019-03-17T21:18:25.187207,7,EyesClosed
-3819.823720434156,-1391.127871409401,-2845.533531371776,-6652.862626655416,35494.83841596108,-708.2820782997702,6365.419192960167,5027.130845443112,0.0,0.0,0.0,2019-03-17T21:18:25.188075,7,EyesClosed
-4174.6353119177,-1753.6955182189367,-3151.9535961095808,-6927.27499333322,35269.95751499623,-156.9315978207109,6071.985491750896,4776.143106954469,0.0,0.0,0.0,2019-03-17T21:18:25.194370,7,EyesClosed
-4315.205432797126,-1890.0635111407653,-3361.9482352671907,-7159.666080435048,35067.27189627551,-475.28749409764936,5902.827489713131,4556.1572380253365,0.0,1.004,0.256,2019-03-17T21:18:25.195098,7,EyesClosed
-3973.7601844978553,-1535.408381868408,-3069.6544730251403,-6910.242964058276,35274.874898776405,-1063.8759808392504,6195.881211266663,4797.533726398197,0.0,0.0,0.0,2019-03-17T21:18:25.201774,7,EyesClosed
-3794.074510821642,-1363.5458187515521,-2831.6083945761197,-6659.232873825178,35500.51575905273,-829.2050158029814,6403.014827133993,5041.167740961045,0.0,0.0,0.0,2019-03-17T21:18:25.202412,7,EyesClosed
-4110.597564053245,-1691.9600000333787,-3090.910982002137,-6873.586103151572,35326.17215230133,-215.13554038233048,6148.383754299135,4837.163369317457,0.0,0.0,0.0,2019-03-17T21:18:25.208989,7,EyesClosed
-4320.838072399863,-1901.619363024159,-3356.4050026422747,-7144.846873861179,35090.22713783111,-368.1555829233626,5913.131643907028,4568.964787598227,0.0,0.0,0.0,2019-03-17T21:18:25.216993,7,EyesClosed
-4027.493778168414,-1601.278972778198,-3133.245186000489,-6964.334185640119,35232.25012210013,-1009.985924957505,6136.179701826537,4732.98188841127,0.0,0.0,0.0,2019-03-17T21:18:25.217661,7,EyesClosed
-3782.8315833606225,-1355.4097837698203,-2839.7220778133965,-6668.330033818488,35482.32143906611,-941.5895869242653,6388.26267579349,5007.573069044718,0.0,0.0,0.0,2019-03-17T21:18:25.223644,7,EyesClosed
-4039.7648858743773,-1617.9086706529465,-3018.8936613671376,-6802.954590672803,35368.48400455523,-293.74662563164543,6192.282580409358,4876.524791303253,0.0,0.0,0.0,2019-03-17T21:18:25.224029,7,EyesClosed
-4314.825453141386,-1886.9566186614775,-3330.2087581406545,-7108.100605976654,35106.320393838934,-271.5960468764361,5909.555364794179,4578.129002824903,0.0,0.0,0.0,2019-03-17T21:18:25.231010,7,EyesClosed
-4099.444043570047,-1660.6899095404042,-3187.6046285157954,-7006.95896231639,35181.37755171985,-911.3029731873243,6069.325634160714,4673.325082460056,0.0,0.0,0.0,2019-03-17T21:18:25.231378,7,EyesClosed
-3798.9918946018097,-1365.736289708172,-2861.760897846329,-6691.218220140722,35454.24764803024,-1014.2998116373792,6371.230646518547,4981.063900120724,0.006,1.004,0.258,2019-03-17T21:18:25.239076,7,EyesClosed
-3977.69409152199,-1560.2858734471647,-2961.673195561552,-6750.4279912028305,35409.83473179755,-383.6006383419798,6252.207607294036,4930.638364629551,0.0,0.0,0.0,2019-03-17T21:18:25.239438,7,EyesClosed
-4308.790482138453,-1894.1762321205417,-3300.1456618482666,-7075.958797449923,35130.3932226173,-196.04715061749826,5938.769094797265,4619.837357978507,0.0,0.0,0.0,2019-03-17T21:18:25.247753,7,EyesClosed
-4177.742204396988,-1752.3544135516183,-3254.6375101372614,-7066.191085122953,35131.26494065105,-806.7638643698531,6016.039075379262,4629.0015732051825,0.0,0.0,0.0,2019-03-17T21:18:25.248606,7,EyesClosed
-3828.496197282815,-1403.1084064374456,-2901.345837276678,-6729.350296181477,35414.95328127781,-1065.5970651623088,6347.090762506815,4949.704402649928,0.0,0.0,0.0,2019-03-17T21:18:25.254187,7,EyesClosed
-3911.711741889923,-1497.6562854833944,-2908.8783751581163,-6696.940266721281,35448.950284594335,-489.48085182676937,6315.418340613644,4984.282551322288,0.0,0.0,0.0,2019-03-17T21:18:25.254614,7,EyesClosed
-4268.043251996428,-1860.0227665928326,-3264.9640160756135,-7028.215471293387,35166.11131025688,-156.39515595378353,5980.790374373242,4668.720623102263,0.0,0.0,0.0,2019-03-17T21:18:25.261985,7,EyesClosed
-4234.090952168817,-1819.879033551101,-3308.192289852177,-7104.971361752911,35090.584765742395,-687.4055489785134,5971.46969693538,4595.451604777766,0.0,0.0,0.0,2019-03-17T21:18:25.262881,7,EyesClosed
-3866.784735534756,-1440.5028749111743,-2952.7772012683395,-6780.267570050665,35368.28283885513,-1089.9381148741384,6312.982000468016,4906.252611428811,0.0,0.0,0.0,2019-03-17T21:18:25.269092,7,EyesClosed
-3848.1210289145747,-1427.4047526603642,-2861.0009385348485,-6660.641033725862,35481.226203587794,-604.1229491380393,6374.181076786647,5025.052133208768,0.0,0.0,0.0,2019-03-17T21:18:25.275945,7,EyesClosed
-4198.931658140619,-1792.1852221709755,-3185.7941372149157,-6955.862874491558,35240.050880915034,-128.05314398445415,6067.135163204094,4747.085839162569,0.0,1.002,0.258,2019-03-17T21:18:25.276685,7,EyesClosed
-4271.84304855383,-1855.5077142128605,-3328.0853424174006,-7124.193861984475,35091.61294598734,-559.9335503498972,5960.651452619011,4581.638226704386,0.0,0.0,0.0,2019-03-17T21:18:25.283592,7,EyesClosed
-3933.68350668949,-1501.0090471516905,-3019.5195102118864,-6854.296547686643,35316.02446031862,-1098.8117574228952,6257.862598641229,4836.224596050334,0.0,0.0,0.0,2019-03-17T21:18:25.284066,7,EyesClosed
-3824.986973403332,-1391.3290371094988,-2838.4256766349886,-6655.880112156882,35495.93365143939,-738.0769536586945,6403.372455045278,5031.198862933978,0.0,0.0,0.0,2019-03-17T21:18:25.291451,7,EyesClosed
-4159.167904754628,-1739.1221808340765,-3130.004183054469,-6912.522841992717,35285.93901228178,-167.34751073688398,6115.5490416942885,4789.4870983942865,0.0,0.0,0.0,2019-03-17T21:18:25.292233,7,EyesClosed
-4304.588354180855,-1886.3084180722735,-3342.971604224635,-7142.03055405981,35083.16398658323,-448.91243564038706,5933.829359272642,4565.209694529735,0.0,0.0,0.0,2019-03-17T21:18:25.299810,7,EyesClosed
-3987.908838738065,-1558.698899590838,-3079.7798132633943,-6917.172004839422,35259.31808463551,-1062.1325447717363,6194.7859757883525,4774.80200228715,0.0,0.0,0.0,2019-03-17T21:18:25.300458,7,EyesClosed
-3798.611914946069,-1371.7489089666497,-2829.775551530785,-6650.918024887804,35483.14845361096,-854.3283765707465,6403.7524347010185,5023.733380285905,0.0,0.0,0.0,2019-03-17T21:18:25.307743,7,EyesClosed
-4100.919258704097,-1682.3934534065072,-3071.5096678149307,-6843.679469070372,35322.10413481046,-222.39985733030528,6156.206864858493,4838.012735606759,0.0,0.0,0.0,2019-03-17T21:18:25.308558,7,EyesClosed
-4313.529051962978,-1897.618400766659,-3345.653813559272,-7120.595231127171,35081.1299778378,-332.3480883059607,5915.635039286022,4569.6576916763415,0.0,0.0,0.0,2019-03-17T21:18:25.315660,7,EyesClosed
-4033.729914871444,-1605.7046181803487,-3139.0566395588685,-6951.66074653396,35212.06649685699,-973.2173053285248,6134.078637847739,4725.494054018743,0.002,1.012,0.25,2019-03-17T21:18:25.316433,7,EyesClosed
-3766.0901267635977,-1338.6683271727952,-2819.6278595480753,-6632.254318267623,35483.908412922436,-923.2164529820029,6418.236365108057,5032.42820887902,0.0,0.0,0.0,2019-03-17T21:18:25.322370,7,EyesClosed
-4012.965144272464,-1592.3159232516198,-2985.164878984079,-6755.1218575384455,35389.53934783213,-273.0489102660311,6242.797522878352,4920.624783113573,0.0,0.0,0.0,2019-03-17T21:18:25.323068,7,EyesClosed
-4305.325961747881,-1889.9294006740333,-3313.400246310264,-7077.657530028526,35119.17264690073,-220.70112475170194,5953.096562993117,4615.992857932193,0.0,0.0,0.0,2019-03-17T21:18:25.329506,7,EyesClosed
-4115.380837366681,-1691.4459099109067,-3205.888355480237,-7009.060026295188,35168.97233354716,-873.4838215689447,6089.4869076594005,4680.16471626338,0.0,0.0,0.0,2019-03-17T21:18:25.335909,7,EyesClosed
-3796.7790719007344,-1368.1502781093452,-2861.380918190589,-6675.929626933293,35454.49351721925,-998.7206457520301,6408.401597547722,5002.700388753461,0.0,0.0,0.0,2019-03-17T21:18:25.336634,7,EyesClosed
-3956.2140651004393,-1538.2694051586873,-2940.7743144958395,-6714.620496585429,35432.07471753058,-374.369367881938,6309.67394228863,4974.246618061855,0.0,0.0,0.0,2019-03-17T21:18:25.344016,7,EyesClosed
-4301.459109957113,-1889.0800343847318,-3298.9163159032246,-7057.228035596376,35141.703205311685,-163.23478975710748,5978.7787173722645,4652.493256627709,0.0,0.0,0.0,2019-03-17T21:18:25.344905,7,EyesClosed
-4182.547829454878,-1752.913207163001,-3267.2438940100546,-7060.379631564574,35128.135696427315,-754.5278375778005,6040.849511724653,4651.755649060685,0.0,0.0,0.0,2019-03-17T21:18:25.352017,7,EyesClosed
-3824.651697236502,-1393.9888946996803,-2908.4760437579207,-6722.398903655876,35414.17097022188,-1044.1840939741248,6380.260751278491,4975.297150051254,0.0,0.0,0.0,2019-03-17T21:18:25.352824,7,EyesClosed
-3897.496032416348,-1477.1373840734225,-2895.377921507111,-6676.46606880022,35461.40020625594,-487.0892151700515,6363.452239448099,5020.4029703620645,0.004,1.01,0.252,2019-03-17T21:18:25.359110,7,EyesClosed
-4262.298853671415,-1846.879940853112,-3246.8143995779037,-7009.19413676192,35183.992705821125,-132.81406555343457,6027.214947606915,4701.331818262555,0.0,0.0,0.0,2019-03-17T21:18:25.359786,7,EyesClosed
-4234.269766124459,-1818.5155771393272,-3305.711246217638,-7101.216268684419,35099.36900131333,-645.9877665028295,5999.655246693522,4609.466148551243,0.0,0.0,0.0,2019-03-17T21:18:25.366721,7,EyesClosed
-3866.8517907681216,-1443.0062702901687,-2963.4613351179764,-6790.616427733473,35359.92328642884,-1085.7583386609958,6327.398875641689,4902.810442782694,0.0,0.0,0.0,2019-03-17T21:18:25.367429,7,EyesClosed
-3841.2143398778844,-1422.576775858018,-2853.6472146090528,-6657.645899968851,35487.372933313,-629.7827517727318,6403.774786445473,5032.249394923377,0.0,0.0,0.0,2019-03-17T21:18:25.374502,7,EyesClosed
-4197.322332539837,-1796.9684954844113,-3174.998244643002,-6954.834694246614,35245.25883737312,-139.02785051200993,6085.083614001705,4750.885635719971,0.0,0.0,0.0,2019-03-17T21:18:25.375305,7,EyesClosed
-4278.995606779528,-1872.5620952322597,-3333.941499464691,-7140.912966837045,35078.24660280307,-542.8344658415873,5957.723374095366,4567.489572464177,0.0,0.0,0.0,2019-03-17T21:18:25.381848,7,EyesClosed
-3928.6320124425906,-1500.2937913291207,-3021.821739890783,-6863.371355935497,35307.64255614788,-1081.5115072144874,6270.424279025112,4832.715372170851,0.0,0.0,0.0,2019-03-17T21:18:25.382514,7,EyesClosed
-3821.455397779393,-1391.1949266427669,-2835.98933648936,-6657.020051124103,35490.79275021467,-755.220741655915,6425.187757633657,5031.75765654536,0.0,0.0,0.0,2019-03-17T21:18:25.388258,7,EyesClosed
-4151.456552917547,-1746.3641460375961,-3124.259784729455,-6903.492737232774,35286.766026826626,-166.1628682807527,6140.940623395518,4798.785424087694,0.0,0.0,0.0,2019-03-17T21:18:25.389016,7,EyesClosed
-4298.933362833663,-1893.0586448977763,-3344.290357147498,-7136.867301090634,35086.20382382916,-403.3148769515606,5961.053784019206,4575.536200468087,0.006,1.014,0.244,2019-03-17T21:18:25.396277,7,EyesClosed
-3998.7047313099783,-1571.3499869525417,-3094.107281459246,-6925.553909010161,35255.38417761138,-1019.2842506509127,6215.9754295319835,4774.556133098142,0.0,0.0,0.0,2019-03-17T21:18:25.404150,7,EyesClosed
-3787.2795805072287,-1366.0492141305465,-2824.6570020505196,-6651.633280710374,35496.64890726196,-843.8230566767522,6447.7183160446075,5040.184264205011,0.0,0.0,0.0,2019-03-17T21:18:25.404932,7,EyesClosed
-4063.0777553412627,-1657.0689269386444,-3038.049106365336,-6823.071160682579,35360.75030097369,-197.38825528481667,6230.23584249447,4881.7550995057945,0.0,0.0,0.0,2019-03-17T21:18:25.411306,7,EyesClosed
-4314.244307785548,-1911.4988340734046,-3341.5634443239505,-7126.786664341291,35095.79272220048,-294.19366052075156,5964.98769104334,4588.81313667454,0.0,0.0,0.0,2019-03-17T21:18:25.411982,7,EyesClosed
-4046.358650488693,-1634.9406999278904,-3150.903064120181,-6973.632511333527,35209.652508455816,-940.6508136571424,6168.03093767535,4727.863338931005,0.0,0.0,0.0,2019-03-17T21:18:25.418821,7,EyesClosed
-3771.6110076440586,-1358.7625454381164,-2834.4917696108546,-6657.444734268754,35473.626610472995,-933.699421131542,6449.551159089942,5026.527348342818,0.0,0.0,0.0,2019-03-17T21:18:25.419631,7,EyesClosed
-3988.9146672385536,-1584.5822196700835,-2974.659559090085,-6753.020793559646,35399.7540950482,-276.26756146759527,6294.564163036843,4942.305975235221,0.0,0.0,0.0,2019-03-17T21:18:25.427026,7,EyesClosed
-4303.157842535716,-1893.2821623423295,-3312.9532114211574,-7082.999596953345,35119.32910911192,-192.6943889492022,5989.060519821706,4630.521491828143,0.0,0.0,0.0,2019-03-17T21:18:25.427814,7,EyesClosed
-4131.183520696583,-1703.6723141279597,-3219.7017335536166,-7025.890889870035,35154.86838279586,-837.2292920624367,6105.4460532004905,4682.131669775447,0.0,0.0,0.0,2019-03-17T21:18:25.434956,7,EyesClosed
-3793.4486619768936,-1361.9141414063147,-2860.1068687566362,-6686.032615427091,35446.80451712663,-993.0209509159268,6433.569661804398,5011.663438280039,0.008,1.012,0.24,2019-03-17T21:18:25.435649,7,EyesClosed
-3925.6368786855796,-1505.9040791874027,-2912.253488570868,-6706.685627303795,35449.0173398277,-369.38492886840453,6365.419192960167,5005.404949832553,0.0,0.0,0.0,2019-03-17T21:18:25.441583,7,EyesClosed
-4281.789574836442,-1862.3026445272737,-3271.736594645571,-7054.970509406389,35160.05398750949,-128.85780678484522,6033.093456398661,4676.454326683799,0.0,0.0,0.0,2019-03-17T21:18:25.442343,7,EyesClosed
-4187.956951613063,-1760.3339863221631,-3262.259454996521,-7082.552562064238,35128.02393770504,-716.2616510703148,6072.834858040197,4645.720678057752,0.0,0.0,0.0,2019-03-17T21:18:25.449524,7,EyesClosed
-3833.815912463178,-1401.5661360700294,-2910.1077211031584,-6759.81572387406,35401.832807282546,-1046.821599819851,6401.629018977764,4955.359393997121,0.0,0.0,0.0,2019-03-17T21:18:25.450221,7,EyesClosed
-3886.9907125223535,-1461.0664798100568,-2881.273970755812,-6702.483499346197,35463.81419465711,-511.54202360415746,6402.74660620053,5018.771293016826,0.0,0.0,0.0,2019-03-17T21:18:25.456740,7,EyesClosed
-4235.342649858314,-1820.9295655405006,-3215.946640485125,-7015.67614265396,35207.886720643844,-109.21062340863031,6083.250770956371,4722.588327239553,0.0,0.0,0.0,2019-03-17T21:18:25.464517,7,EyesClosed
-4233.8450829798085,-1819.141425984076,-3303.677237472205,-7135.235623745397,35097.60321350136,-609.4426643184024,6026.767912717809,4603.230011848213,0.0,0.0,0.0,2019-03-17T21:18:25.465282,7,EyesClosed
-3858.559293575203,-1443.1850842458111,-2954.498285591398,-6812.565840788584,35360.41502480686,-1062.981911061038,6361.775858613952,4906.856108529104,0.0,0.0,0.0,2019-03-17T21:18:25.471011,7,EyesClosed
-3832.3406973291276,-1404.2706971491216,-2830.155531186525,-6658.7411354471615,35493.65377350495,-626.7205627823547,6453.574473091898,5057.1492382465885,0.0,0.0,0.0,2019-03-17T21:18:25.471690,7,EyesClosed
-4187.956951613063,-1762.0327189007664,-3148.042040829902,-6936.103932393066,35262.31321839252,-102.16982390520859,6149.546045010811,4795.231496719301,0.006,1.018,0.23600000000000002,2019-03-17T21:18:25.479108,7,EyesClosed
-4281.163725991693,-1856.8041153912684,-3323.100903403867,-7128.463045175439,35090.025972131014,-467.4643835382919,6014.943839900951,4608.326209584023,0.0,0.0,0.0,2019-03-17T21:18:25.479995,7,EyesClosed
-3946.5581114957467,-1511.9166984458802,-3031.142417328646,-6872.177943250888,35293.471550163216,-1037.657384593175,6304.8459654862845,4851.177913090934,0.0,0.0,0.0,2019-03-17T21:18:25.487781,7,EyesClosed
-3809.5419179847145,-1383.8412027169709,-2817.482092080366,-6647.721725430695,35489.45164554735,-743.2625583723258,6479.502496660054,5071.856686098181,0.0,0.0,0.0,2019-03-17T21:18:25.488666,7,EyesClosed
-4140.437142901081,-1723.1853870374428,-3082.909057487137,-6881.006882310735,35300.62410838892,-142.64883311376968,6211.013342262905,4856.877607927037,0.0,0.0,0.0,2019-03-17T21:18:25.494413,7,EyesClosed
-4316.18890955316,-1894.8020809652903,-3318.1388161347886,-7132.575766155215,35082.91811739423,-353.24696937167283,6006.7183979413985,4617.289259110601,0.0,0.0,0.0,2019-03-17T21:18:25.495051,7,EyesClosed
-4006.8854697806205,-1580.7824231126815,-3077.1423074176682,-6929.599574756572,35243.96243619471,-987.0306834019045,6253.906339872639,4808.821357348127,0.0,0.0,0.0,2019-03-17T21:18:25.502516,7,EyesClosed
-3792.5098887097706,-1371.1901153552672,-2811.93885945545,-6653.1084958444235,35478.34282855306,-859.0669463952717,6483.0564240284475,5072.10255528719,0.0,0.0,0.0,2019-03-17T21:18:25.503156,7,EyesClosed
-4071.3479007897263,-1655.727822271326,-3022.0005538464256,-6818.869032724981,35340.879600152926,-221.10345615189746,6264.7022324445525,4915.349771422121,0.0,0.0,0.0,2019-03-17T21:18:25.509125,7,EyesClosed
-4308.879889116274,-1893.3715693201507,-3301.8667461713253,-7099.226963427897,35096.887957678795,-251.43477337774914,6019.4588922809235,4644.245462923702,0.0,0.0,0.0,2019-03-17T21:18:25.509985,7,EyesClosed
-4074.767717691388,-1647.2341593783092,-3139.101343047779,-6975.554761356683,35186.786673878036,-906.0503132403271,6196.484708366956,4756.250054389245,0.002,1.018,0.234,2019-03-17T21:18:25.516308,7,EyesClosed
-3790.5652869421588,-1358.0025861266358,-2813.79405424524,-6656.975347635192,35459.1203283215,-941.5895869242653,6486.677406630208,5056.52338940184,0.0,0.0,0.0,2019-03-17T21:18:25.523969,7,EyesClosed
-4010.7299698269335,-1582.6599696469273,-2948.44096284401,-6751.880854592426,35386.34304837502,-304.9672013482096,6337.524215879944,4965.484734235374,0.0,0.0,0.0,2019-03-17T21:18:25.524792,7,EyesClosed
-4313.037313584961,-1890.9575809189776,-3282.778356406493,-7081.367919608107,35109.06965840694,-183.9325051227218,6029.7853982192755,4647.419410636355,0.0,0.0,0.0,2019-03-17T21:18:25.532072,7,EyesClosed
-4147.634404615689,-1717.6198026680713,-3200.4792333220526,-7041.246538310831,35135.958806986666,-814.1622917845598,6136.470274504456,4683.249256998212,0.0,0.0,0.0,2019-03-17T21:18:25.532784,7,EyesClosed
-3814.213432575874,-1384.7576242396385,-2842.9407290149607,-6702.036464457091,35425.99504303873,-1010.6341255467088,6467.097278487358,5005.404949832553,0.0,0.0,0.0,2019-03-17T21:18:25.538708,7,EyesClosed
-3936.1869020684844,-1516.476454314763,-2878.323540487712,-6701.880002245904,35434.57811290957,-405.59475488600197,6406.322885313379,5008.08715916719,0.0,0.0,0.0,2019-03-17T21:18:25.539489,7,EyesClosed
-4278.526220145967,-1866.9965108628883,-3228.3071551689095,-7028.953078860412,35157.46118515267,-119.15714969124195,6081.149706977571,4691.921733846872,0.0,0.0,0.0,2019-03-17T21:18:25.546882,7,EyesClosed
-4206.710065211066,-1787.9830942133779,-3249.4072019347195,-7079.512724818316,35102.61000425935,-692.6582089255106,6093.644332128088,4638.5681198320535,0.0,0.0,0.0,2019-03-17T21:18:25.547732,7,EyesClosed
-3846.914034713988,-1418.7546275561606,-2900.7199884319293,-6753.736049382216,35373.71431275777,-1050.1520097436917,6422.282030854468,4946.530454937274,0.0,0.0,0.0,2019-03-17T21:18:25.555387,7,EyesClosed
-3867.008252979309,-1443.7215261127385,-2836.5034266118323,-6660.752792448139,35465.13294757998,-519.9462795193529,6454.043859725459,5040.877168283126,-0.002,1.014,0.23800000000000002,2019-03-17T21:18:25.556066,7,EyesClosed
-4244.216292407071,-1816.7721410718134,-3190.644465761717,-6987.736462084826,35194.408618737296,-106.19313790716386,6123.170986553549,4734.07712388958,0.0,0.0,0.0,2019-03-17T21:18:25.561597,7,EyesClosed
-4260.287196670437,-1826.8974813100674,-3283.2924465289652,-7109.888745533079,35081.06292260443,-562.2134282843385,6063.111849202139,4613.958849186761,0.0,0.0,0.0,2019-03-17T21:18:25.562437,7,EyesClosed
-3902.815747596711,-1470.7000816702941,-2959.6168350716634,-6819.785454247649,35318.840780119994,-1054.108268512281,6370.6495011627085,4889.354692620599,0.0,0.0,0.0,2019-03-17T21:18:25.569258,7,EyesClosed
-3865.2201134228844,-1422.576775858018,-2834.89410101105,-6668.933530918781,35456.25930503122,-665.5455429012231,6468.550141876954,5038.373772904131,0.0,0.0,0.0,2019-03-17T21:18:25.569896,7,EyesClosed
-4204.474890765535,-1775.242599873853,-3129.624203398729,-6930.136016623499,35241.950779193736,-119.22420492460788,6178.625664547166,4792.973970529315,0.0,0.0,0.0,2019-03-17T21:18:25.576370,7,EyesClosed
-4316.546537464445,-1888.1859646065195,-3309.153414863755,-7132.352248710662,35062.198050284154,-450.27589205216077,6026.700857484443,4596.6585989783525,0.0,0.0,0.0,2019-03-17T21:18:25.584395,7,EyesClosed
-3970.899161207576,-1535.1401609349443,-3013.663353164596,-6876.424774697397,35266.98473298368,-1027.889672266206,6316.4688726030445,4834.548215216186,0.0,0.0,0.0,2019-03-17T21:18:25.585079,7,EyesClosed
-3812.492348252815,-1387.0375021740797,-2790.3694260560783,-6642.692582928251,35471.16791858291,-767.9388842509848,6501.228392270612,5058.71386035846,0.0,0.0,0.0,2019-03-17T21:18:25.590991,7,EyesClosed
-4130.3565061517365,-1707.852090341102,-3050.0743448822914,-6861.762030334715,35293.046867018566,-155.50108617557123,6236.762551875419,4852.094334613602,0.0,0.0,0.0,2019-03-17T21:18:25.591685,7,EyesClosed
-4312.679685673676,-1888.8565169401786,-3297.798728680459,-7115.163757224532,35074.1785853122,-330.0235068826088,6026.656153995533,4605.375779315922,0.004,1.008,0.248,2019-03-17T21:18:25.599158,7,EyesClosed
-4015.4685396514583,-1575.4180044434077,-3071.5543713038414,-6926.55973751065,35221.99067139514,-969.9986541269606,6264.14343883317,4779.652330833952,0.0,0.0,0.0,2019-03-17T21:18:25.599813,7,EyesClosed
-3777.9365513249104,-1332.4321904697647,-2782.188687585436,-6631.449655467231,35478.2757733197,-864.0066819198945,6524.8541861598715,5061.105497015178,0.0,0.0,0.0,2019-03-17T21:18:25.606948,7,EyesClosed
-4047.1409615446287,-1619.0709613646225,-2981.1415649821242,-6791.935180656336,35353.441280536805,-227.18313064374098,6318.838157515306,4911.393512653532,0.0,0.0,0.0,2019-03-17T21:18:25.607586,7,EyesClosed
-4316.814758397908,-1896.4114065660724,-3296.9940658800683,-7106.357169909141,35087.41081802974,-251.39006988883853,6039.24018612387,4611.254288107668,0.0,0.0,0.0,2019-03-17T21:18:25.615059,7,EyesClosed
-4089.028130653874,-1655.2360838933091,-3150.165456553156,-6989.882229552535,35175.83431909494,-893.1086532007043,6215.148414987138,4712.775911423673,0.0,0.0,0.0,2019-03-17T21:18:25.615765,7,EyesClosed
-3790.162955541963,-1352.0123186126136,-2816.9680019578936,-6662.943263404759,35462.89777313444,-956.6099591982316,6523.043694858992,5025.968554731436,0.0,0.0,0.0,2019-03-17T21:18:25.624497,7,EyesClosed
-3971.0109199298527,-1542.3597743940086,-2919.71897121894,-6724.298801934577,35423.17872323737,-307.49294847165925,6405.026484134971,4974.783059928783,0.0,0.0,0.0,2019-03-17T21:18:25.625135,7,EyesClosed
-4294.641827898244,-1872.1821155765197,-3265.3886992202642,-7053.227073338875,35143.06666172346,-152.46124892964949,6094.15842225056,4661.411602665377,0.0,0.0,0.0,2019-03-17T21:18:25.630769,7,EyesClosed
-4159.212608243538,-1721.6207649255712,-3216.393675374231,-7034.339849274141,35145.50300186909,-778.8465355451746,6177.5080773244,4676.342567961522,0.0,0.0,0.0,2019-03-17T21:18:25.631422,7,EyesClosed
-3827.5127205267813,-1382.0754149050017,-2870.835706095184,-6706.819737770526,35422.7093366038,-1018.5019395949769,6493.785261366995,4989.043472891268,0.002,1.004,0.248,2019-03-17T21:18:25.637024,7,EyesClosed
-3926.6650589305236,-1489.4531952682967,-2885.185526035491,-6686.949036949759,35452.41480498491,-420.05633354858566,6452.479237613587,5017.1172639271335,0.0,0.0,0.0,2019-03-17T21:18:25.637689,7,EyesClosed
-4269.317301430381,-1846.5670164307376,-3231.4363993926527,-7009.596468162116,35181.04227555302,-100.60520179333709,6130.077675590239,4712.485338745754,0.0,0.0,0.0,2019-03-17T21:18:25.643906,7,EyesClosed
-4215.0025624039845,-1786.0384924457662,-3260.0466322954458,-7073.902436960035,35115.28344336551,-646.8594845365864,6128.557756967278,4647.77703854764,0.0,0.0,0.0,2019-03-17T21:18:25.651195,7,EyesClosed
-3868.550523346725,-1434.4008486748755,-2925.217500354946,-6766.230674532732,35368.685170255325,-1042.4630096510662,6440.632813052275,4938.6402891445505,0.0,0.0,0.0,2019-03-17T21:18:25.651994,7,EyesClosed
-3872.104450715119,-1443.1627325013558,-2846.673470338997,-6658.338804046965,35467.85986040352,-541.4039541964477,6480.977711794104,5045.191054962999,0.0,0.0,0.0,2019-03-17T21:18:25.659200,7,EyesClosed
-4224.278536352937,-1797.013198973322,-3171.5784277413404,-6952.443057589896,35224.739935963145,-83.8637451963121,6165.08050740725,4762.173266669902,0.0,0.0,0.0,2019-03-17T21:18:25.659841,7,EyesClosed
-4255.816847779375,-1819.4543504064502,-3288.1204233313115,-7091.0238732128,35097.17853035671,-520.4827213862802,6084.837744812697,4622.899546968883,0.0,0.0,0.0,2019-03-17T21:18:25.667290,7,EyesClosed
-3909.7000848889456,-1469.7613084031711,-2971.172686955057,-6809.436596564841,35326.2392075347,-1041.077201494837,6389.380263016255,4888.259457142289,0.0,0.0,0.0,2019-03-17T21:18:25.668063,7,EyesClosed
-3820.784845445734,-1387.3057231075434,-2803.422844817978,-6621.816053606994,35492.87146244901,-662.4162986774801,6517.142834322791,5069.018014552357,0.0,0.0,0.0,2019-03-17T21:18:25.673939,7,EyesClosed
-4162.721832123021,-1730.8073318967024,-3101.818633296327,-6886.058376557634,35279.50170987865,-110.35056237585097,6227.464226182012,4820.779540631716,0.004,1.004,0.23800000000000002,2019-03-17T21:18:25.674924,7,EyesClosed
-4283.398900437224,-1851.260882766352,-3294.4683187566184,-7094.846021514657,35100.84421644738,-400.81148157256627,6074.667701085532,4613.601221275476,0.0,0.0,0.0,2019-03-17T21:18:25.681860,7,EyesClosed
-3956.7281552229115,-1514.8224252250702,-3017.2843357663555,-6854.587120364562,35297.114884509436,-997.6254102737201,6355.718535866563,4837.118665828546,0.0,0.0,0.0,2019-03-17T21:18:25.682552,7,EyesClosed
-3798.0978248235974,-1365.8927519193594,-2792.761062712796,-6619.580879161463,35506.03663993319,-781.4393379019903,6550.849264961394,5062.848933082692,0.0,0.0,0.0,2019-03-17T21:18:25.690076,7,EyesClosed
-4103.512061060913,-1682.661674339971,-3039.6360802216627,-6826.133349672956,35346.98162638922,-157.22217049862988,6310.098625433282,4869.148715633001,0.0,0.0,0.0,2019-03-17T21:18:25.690774,7,EyesClosed
-4327.633002714277,-1909.6436392836142,-3317.624726012317,-7110.447539144461,35105.00164091607,-307.0459135825531,6074.3994801520685,4594.870459421928,0.0,0.0,0.0,2019-03-17T21:18:25.696538,7,EyesClosed
-4055.3887552486367,-1630.3585923145524,-3108.255935699455,-6939.099066150077,35241.86137221591,-956.3193865203127,6300.085043917304,4753.5007898212425,0.0,0.0,0.0,2019-03-17T21:18:25.697199,7,EyesClosed
-3808.647848206502,-1378.4320805587865,-2811.22360363288,-6639.563338704507,35500.11342765253,-893.1086532007043,6567.076631435947,5041.5924241056955,0.0,0.0,0.0,2019-03-17T21:18:25.703601,7,EyesClosed
-4053.0194703363745,-1627.1399411129883,-2983.1979254720122,-6768.644662933906,35398.748266547715,-240.12479068336378,6384.306417024901,4924.916318048992,0.0,0.0,0.0,2019-03-17T21:18:25.711462,7,EyesClosed
-4324.481406746078,-1898.5795257782372,-3287.1592983197334,-7066.30284384523,35144.60893209087,-200.74101695311273,6115.303172505281,4641.63030882243,0.0,0.0,0.0,2019-03-17T21:18:25.712294,7,EyesClosed
-4105.948401206541,-1671.9775404903341,-3154.9710816110473,-6965.183551929421,35216.20156958122,-839.9115013970735,6275.09579361627,4736.088780890558,0.004,1.006,0.246,2019-03-17T21:18:25.719476,7,EyesClosed
-3790.520583453248,-1355.8568186589264,-2811.22360363288,-6630.890861855849,35500.471055563816,-940.3825927236787,6583.72868105515,5056.501037657385,0.0,0.0,0.0,2019-03-17T21:18:25.720145,7,EyesClosed
-3968.3063588507607,-1542.7844575386594,-2905.950296634471,-6686.725519505206,35464.037712101665,-312.79031190756706,6466.046746497959,5012.244583635877,0.0,0.0,0.0,2019-03-17T21:18:25.726186,7,EyesClosed
-4296.9440575771405,-1876.9430371455,-3253.095239769845,-7018.872442111068,35184.52914768805,-118.24072816857436,6146.305042064791,4700.3259897620665,0.0,0.0,0.0,2019-03-17T21:18:25.726844,7,EyesClosed
-4176.132878796206,-1744.5760064811716,-3215.5666608293845,-7018.5595176886945,35173.643848138316,-729.3150698322141,6207.571173616788,4699.767196150684,0.0,0.0,0.0,2019-03-17T21:18:25.734175,7,EyesClosed
-3818.728484955846,-1379.5049642926413,-2853.4907523978654,-6674.789687966071,35462.74131092326,-991.0539974038599,6540.433352045221,5023.040476207791,0.0,0.0,0.0,2019-03-17T21:18:25.734863,7,EyesClosed
-3911.242355256362,-1478.702006185294,-2862.4538019244437,-6650.091010342957,35496.78301772869,-427.18654002982856,6502.614200426841,5051.963633532958,0.0,0.0,0.0,2019-03-17T21:18:25.742229,7,EyesClosed
-4260.600121092811,-1835.9946413033774,-3207.855308992304,-6974.057194478178,35227.37744180887,-79.30398932742946,6174.401184845113,4742.839007716061,0.0,0.0,0.0,2019-03-17T21:18:25.742882,7,EyesClosed
-4224.077370652839,-1791.8052425152355,-3253.296405469943,-7051.662451227004,35154.08607173993,-601.2842775922153,6163.024146917361,4664.6302538669415,0.0,0.0,0.0,2019-03-17T21:18:25.749513,7,EyesClosed
-3875.837192039155,-1438.6029766324732,-2920.8812619306163,-6747.231691745722,35408.94066201933,-1026.660326321164,6482.631740883797,4953.012460829314,0.0,0.0,0.0,2019-03-17T21:18:25.750161,7,EyesClosed
-3854.7371452733455,-1423.1802729583112,-2817.347981613634,-6616.876318082371,35532.65756757946,-547.7294978772995,6555.654890019285,5080.3950524801085,0.006,1.01,0.246,2019-03-17T21:18:25.756870,7,EyesClosed
-4220.098760139795,-1795.0015419723443,-3155.14989556669,-6924.279859576209,35283.86030004743,-76.35355905932893,6237.030772808883,4787.162516970935,0.0,0.0,0.0,2019-03-17T21:18:25.757607,7,EyesClosed
-4286.37168244978,-1860.3803945041175,-3304.7948246949704,-7098.601114583149,35129.40974586127,-501.14846243243966,6129.496530234401,4611.254288107668,0.0,0.0,0.0,2019-03-17T21:18:25.763894,7,EyesClosed
-3928.877881631599,-1490.7272447022492,-2991.378663942655,-6815.091587912034,35363.20899286377,-1034.6846025806192,6441.079847941381,4871.763869734272,0.0,0.0,0.0,2019-03-17T21:18:25.771633,7,EyesClosed
-3827.0880373821306,-1393.966542955225,-2812.877632722573,-6617.54687041603,35543.85579155157,-688.5901914346447,6588.2437334351225,5063.474781927441,0.0,0.0,0.0,2019-03-17T21:18:25.772470,7,EyesClosed
-4165.9851868134965,-1752.265006573797,-3103.2267931970114,-6873.966082807313,35341.81837342005,-111.95988797663308,6308.53400332141,4826.680401167918,0.0,0.0,0.0,2019-03-17T21:18:25.779099,7,EyesClosed
-4319.0722845878945,-1903.295743858307,-3327.973583695124,-7110.559297866738,35138.819830276945,-381.45487087427034,6130.323544779247,4598.960828657249,0.0,0.0,0.0,2019-03-17T21:18:25.779750,7,EyesClosed
-4002.5045278673806,-1571.2829317191758,-3069.0286241803915,-6892.428623727396,35319.75720164266,-995.3902358281895,6398.142146842736,4807.748473614272,0.0,0.0,0.0,2019-03-17T21:18:25.786479,7,EyesClosed
-3821.053066379198,-1398.928630224303,-2826.4674933513993,-6646.939414374759,35535.18331470291,-811.2565650053698,6603.778195831561,5047.828560808726,0.0,0.0,0.0,2019-03-17T21:18:25.787164,7,EyesClosed
-4097.745310991444,-1691.2000407218982,-3040.3289842997774,-6818.667867024883,35404.760885806194,-156.84219084288966,6398.83505092085,4894.87557350106,0.0,0.0,0.0,2019-03-17T21:18:25.795901,7,EyesClosed
-4343.838017444375,-1921.2218429114632,-3330.678144774216,-7109.4864141328835,35155.78480431853,-266.58925611844734,6152.518827023367,4617.289259110601,0.008,1.01,0.244,2019-03-17T21:18:25.796555,7,EyesClosed
-4088.4022818091253,-1642.5402930426949,-3136.1509127796785,-6952.532464567717,35275.09841622096,-915.3933424226454,6361.664099891675,4763.179095170391,0.0,0.0,0.0,2019-03-17T21:18:25.802415,7,EyesClosed
-3801.22706904734,-1366.6303594863844,-2809.189594887447,-6631.36024848941,35556.28336146872,-874.5567053027994,6647.833484152971,5073.108383787678,0.0,0.0,0.0,2019-03-17T21:18:25.803097,7,EyesClosed
-4025.973859545453,-1608.7444554262706,-2964.958901996482,-6753.043145304102,35470.29620054915,-228.5242353110594,6475.434479169188,4966.758783669327,0.0,0.0,0.0,2019-03-17T21:18:25.809324,7,EyesClosed
-4314.892508374752,-1899.3171333452624,-3286.689911686172,-7072.069593914699,35204.265738042086,-165.11233629135327,6185.5100018394,4662.842114310517,0.0,0.0,0.0,2019-03-17T21:18:25.810080,7,EyesClosed
-4117.079569945285,-1692.854069811591,-3170.6173027297623,-6994.464337165873,35257.194668912256,-810.4966056938894,6318.033494714916,4730.322030821089,0.0,0.0,0.0,2019-03-17T21:18:25.817345,7,EyesClosed
-3806.166804571963,-1383.5506300390518,-2838.8503597796393,-6673.537990276574,35529.2377506778,-966.9811686254941,6613.769425603084,5030.729476300416,0.0,0.0,0.0,2019-03-17T21:18:25.817986,7,EyesClosed
-3952.615434243135,-1538.7164400477934,-2906.017351867837,-6701.500022590163,35517.27956739421,-342.0710971440193,6520.026209357526,4999.593496274173,0.0,0.0,0.0,2019-03-17T21:18:25.824292,7,EyesClosed
-4282.594237636833,-1877.5018307568826,-3250.591844390851,-7031.232956794854,35240.52026754859,-116.54199558997102,6198.27284792338,4678.823611596062,0.0,0.0,0.0,2019-03-17T21:18:25.832287,7,EyesClosed
-4172.2660270054375,-1759.1940473549423,-3222.361591143798,-7040.844206910635,35219.33081380496,-711.1207498455942,6247.960775847528,4658.215303208269,0.0,0.0,0.0,2019-03-17T21:18:25.832961,7,EyesClosed
-3822.081246624142,-1406.9082029948477,-2871.9532933179494,-6715.402807641364,35490.16690136992,-1023.3522681417786,6572.150477427302,4960.679109177484,0.004,1.008,0.24,2019-03-17T21:18:25.838669,7,EyesClosed
-3884.889648543555,-1480.154869574889,-2844.281833682279,-6659.232873825178,35555.92573355744,-466.4362032933478,6573.402175116798,5017.7654645163375,0.0,0.0,0.0,2019-03-17T21:18:25.839527,7,EyesClosed
-4239.276556882448,-1836.1958070034752,-3182.3072650798877,-6974.61598808956,35302.81457934553,-82.29912308444061,6258.0637643413265,4716.843928914539,0.0,0.0,0.0,2019-03-17T21:18:25.846743,7,EyesClosed
-4220.568146773356,-1809.3513619126513,-3249.9212920571917,-7071.957835192423,35217.02858412607,-584.8333936731093,6232.426313451089,4619.837357978507,0.0,0.0,0.0,2019-03-17T21:18:25.847386,7,EyesClosed
-3857.4417063524374,-1440.1452469998894,-2909.3924652805886,-6764.666052420861,35478.11931110851,-1029.4319426336222,6562.092192422413,4911.862899287093,0.0,0.0,0.0,2019-03-17T21:18:25.854696,7,EyesClosed
-3825.2551943367953,-1416.8100257885487,-2799.3101238382014,-6630.533233944564,35606.70889695989,-578.9995883702742,6641.1279608163795,5045.861607296659,0.0,0.0,0.0,2019-03-17T21:18:25.855404,7,EyesClosed
-4183.397195744181,-1787.111376179621,-3129.5124446764526,-6928.906670678458,35364.59480102001,-82.25441959553,6325.476625618533,4765.36956612701,0.0,0.0,0.0,2019-03-17T21:18:25.862131,7,EyesClosed
-4259.884865270241,-1861.2744642823297,-3283.6277226957945,-7103.429091385495,35213.47465675767,-462.1446683579288,6215.841319065252,4598.558497257054,0.0,0.0,0.0,2019-03-17T21:18:25.862865,7,EyesClosed
-3905.9002883315434,-1494.3035238150983,-2974.212524200979,-6825.887480483947,35444.79286012565,-1007.8848609787061,6528.542223994998,4863.046689396702,0.0,0.0,0.0,2019-03-17T21:18:25.869398,7,EyesClosed
-3788.3748159855386,-1379.5273160370966,-2789.9894464003382,-6622.196033262734,35624.6573477575,-696.4580054829128,6680.444679313265,5063.206560993977,0.0,0.0,0.0,2019-03-17T21:18:25.870304,7,EyesClosed
-4112.072779187296,-1713.820006110669,-3059.4844292979756,-6850.407344151419,35442.78120312467,-89.92106794370031,6418.817510463895,4855.491799770809,0.006,1.008,0.242,2019-03-17T21:18:25.877165,7,EyesClosed
-4279.0403102684395,-1879.8040604357793,-3289.6626936987277,-7095.315408148219,35228.74089822065,-324.25675681313953,6227.71009537102,4621.245517879191,0.0,0.0,0.0,2019-03-17T21:18:25.877662,7,EyesClosed
-3968.4181175730373,-1564.532704893673,-3041.6030337337297,-6887.377129480497,35394.99317347922,-949.2338835279803,6485.604522896353,4820.62307842053,0.0,0.0,0.0,2019-03-17T21:18:25.884268,7,EyesClosed
-3770.1134407655527,-1369.5360862655743,-2792.5822487571536,-6628.856853110416,35620.70108898891,-800.6171346446437,6706.551516837063,5074.8741715996475,0.0,0.0,0.0,2019-03-17T21:18:25.884869,7,EyesClosed
-4055.3664035041816,-1665.8084590206695,-3012.0987310527244,-6810.978866932258,35481.29325882116,-167.1239932923309,6482.85525832835,4912.511099876297,0.0,0.0,0.0,2019-03-17T21:18:25.890760,7,EyesClosed
-4307.628191426777,-1912.169386407064,-3305.6888944731827,-7108.190012954476,35223.51059001811,-236.57086331496996,6223.597374391244,4625.425294092333,0.0,0.0,0.0,2019-03-17T21:18:25.899080,7,EyesClosed
-4048.482066211947,-1641.4227058199294,-3119.2529939714664,-6964.647110062494,35335.60458846147,-884.1456036741262,6426.417103578699,4760.362775369022,0.0,0.0,0.0,2019-03-17T21:18:25.899774,7,EyesClosed
-3772.0356907887094,-1364.3728332963983,-2804.1381006405477,-6655.36602203441,35602.529120746745,-895.6344003241541,6707.602048826462,5056.232816723921,0.0,0.0,0.0,2019-03-17T21:18:25.906755,7,EyesClosed
-3969.803925729266,-1577.2284957442876,-2926.9832881669154,-6740.749685853682,35546.336835186106,-234.69331678072416,6567.389555858321,4982.159135599034,0.0,0.0,0.0,2019-03-17T21:18:25.907218,7,EyesClosed
-4267.350347918314,-1876.652464467581,-3246.1214954997895,-7058.278567585775,35282.85447154695,-136.1444754772753,6270.580741236298,4671.179314992347,0.0,0.0,0.0,2019-03-17T21:18:25.913841,7,EyesClosed
-4093.4984795449354,-1690.6188953660603,-3147.885578618715,-6998.0182645342675,35322.126486554924,-764.3626051381357,6385.8486873923175,4714.005257368714,0.002,1.006,0.24,2019-03-17T21:18:25.914275,7,EyesClosed
-3768.593522142592,-1367.9491124092476,-2806.9767721863714,-6670.453449541742,35601.03155386824,-948.7868486388742,6698.035502199591,5018.950106972469,0.0,0.0,0.0,2019-03-17T21:18:25.921369,7,EyesClosed
-3893.584477136669,-1500.8525849405034,-2845.80175230524,-6674.163839121323,35610.508693517295,-334.73972496267857,6634.578899690974,5014.859737737148,0.0,0.0,0.0,2019-03-17T21:18:25.921865,7,EyesClosed
-4240.5506063164,-1852.0878973111985,-3194.0195791744686,-7009.819985606669,35332.832972149015,-79.30398932742946,6312.490262089999,4691.675864657863,0.0,0.0,0.0,2019-03-17T21:18:25.929608,7,EyesClosed
-4155.770439597421,-1760.2892828332524,-3196.165346642178,-7050.477808770873,35292.44336991828,-664.7632318452874,6347.180169484636,4647.888797269917,0.0,0.0,0.0,2019-03-17T21:18:25.930229,7,EyesClosed
-3804.691589437913,-1398.5710023130182,-2846.9416912724605,-6724.90229903487,35569.51559418626,-1006.6555150336642,6679.394147323865,4954.2194550299,0.0,0.0,0.0,2019-03-17T21:18:25.937467,7,EyesClosed
-3846.1540754025077,-1444.995575546691,-2800.606525016609,-6644.637184695863,35653.58050508267,-465.09509862602937,6702.550554579563,5037.703220570472,0.0,0.0,0.0,2019-03-17T21:18:25.938024,7,EyesClosed
-4215.360190315269,-1825.2881557092853,-3146.142142551201,-6964.222426917842,35389.516996087674,-60.72968968506929,6378.539666955432,4739.083914647569,0.0,0.0,0.0,2019-03-17T21:18:25.944336,7,EyesClosed
-4218.556489772379,-1827.2774609658077,-3236.554948872918,-7083.245466142353,35280.41813140132,-542.2756722302047,6325.878957018728,4623.257174880168,0.0,0.0,0.0,2019-03-17T21:18:25.944970,7,EyesClosed
-3856.4805813408593,-1461.155886787878,-2903.826880911217,-6782.212171818277,35528.1872186884,-1014.0092389594602,6647.386449263865,4907.951344007414,0.0,0.0,0.0,2019-03-17T21:18:25.951391,7,EyesClosed
-3804.0657405931643,-1411.5350140970963,-2770.9904636133274,-6622.799530363028,35675.46286290442,-583.3358267946037,6752.57375867054,5068.5933314077065,0.002,1.008,0.242,2019-03-17T21:18:25.959216,7,EyesClosed
-4153.87054131872,-1764.4020038130288,-3082.8643539982268,-6897.927152863402,35454.62762768598,-46.692794167136455,6457.9330632606825,4813.090540539091,0.0,0.0,0.0,2019-03-17T21:18:25.960014,7,EyesClosed
-4256.599158835311,-1859.240455536897,-3255.8668560823035,-7091.001521468344,35288.3306489385,-395.335304181016,6328.449407631088,4628.10750342697,0.0,0.0,0.0,2019-03-17T21:18:25.968679,7,EyesClosed
-3932.096532833163,-1532.122675433478,-2982.1026899937024,-6853.581291864073,35480.57800299859,-987.6788839911085,6609.2096697342,4854.776543948239,0.0,0.0,0.0,2019-03-17T21:18:25.969459,7,EyesClosed
-3780.4399467039048,-1386.389301584876,-2762.2956350202126,-6618.843271594438,35691.57847065669,-697.5308892167675,6797.411358047886,5086.9664653499685,0.0,0.0,0.0,2019-03-17T21:18:25.974982,7,EyesClosed
-4107.9377064630635,-1716.9268985899566,-3027.767303915895,-6847.054582483123,35512.96568071433,-83.81904170740148,6537.929956666227,4878.178820392945,0.0,0.0,0.0,2019-03-17T21:18:25.975667,7,EyesClosed
-4302.911973346707,-1914.0245811968543,-3283.3371500178755,-7120.55052763826,35285.22375645921,-295.75828263262304,6325.677791318631,4620.642020778897,0.0,0.0,0.0,2019-03-17T21:18:25.981931,7,EyesClosed
-4003.9573912569754,-1606.7998536586588,-3047.8391704367605,-6925.531557265706,35444.01054906971,-931.7548193639302,6576.084384451436,4803.4569386788535,0.0,0.0,0.0,2019-03-17T21:18:25.982752,7,EyesClosed
-3763.9443592958883,-1365.713937963717,-2752.1479430375034,-6626.822844364982,35708.386982487085,-786.8931635490851,6837.2421666672435,5089.358102006687,0.0,0.0,0.0,2019-03-17T21:18:25.989957,7,EyesClosed
-4031.0477055368074,-1647.1894558893987,-2953.3583466241776,-6783.285055552132,35587.73226591734,-134.7586673210463,6628.610983921407,4942.820065357693,0.0,0.0,0.0,2019-03-17T21:18:25.990718,7,EyesClosed
-4303.6942844026435,-1918.9196132325667,-3273.0553475684346,-7096.231829670886,35319.35487024247,-182.47964173312687,6349.97413754155,4637.875215753939,0.004,1.008,0.248,2019-03-17T21:18:25.996625,7,EyesClosed
-4063.033051852352,-1667.7530607882811,-3115.6096596252514,-6974.839505534113,35408.739496319235,-838.1457135851042,6529.749218195584,4744.180112383379,0.0,0.0,0.0,2019-03-17T21:18:25.997528,7,EyesClosed
-3766.112478508053,-1367.5020775201415,-2787.4636992768883,-6649.867492898405,35686.50462466534,-876.9036384706067,6828.994372963235,5050.041383509802,0.0,0.0,0.0,2019-03-17T21:18:26.004469,7,EyesClosed
-3958.82921920171,-1572.6016846420391,-2895.534383718298,-6717.548575109074,35639.43185084246,-217.61658401686955,6701.522374334619,4986.562429256729,0.0,0.0,0.0,2019-03-17T21:18:26.005091,7,EyesClosed
-4254.878074512252,-1871.5339149873157,-3206.357742113798,-7021.934631101446,35384.77842626315,-70.07271886738764,6416.4929290405435,4692.234658269245,0.0,0.0,0.0,2019-03-17T21:18:26.011600,7,EyesClosed
-4103.310895360815,-1701.5712501491607,-3126.0032207969693,-6983.020244004756,35415.35561267801,-698.2908485282479,6529.212776328657,4725.248184829734,0.0,0.0,0.0,2019-03-17T21:18:26.019287,7,EyesClosed
-3776.774260613234,-1374.1181938789123,-2785.161469597992,-6658.763487191616,35696.36174397013,-912.8899470436511,6855.749411076237,5038.574938604229,0.0,0.0,0.0,2019-03-17T21:18:26.020199,7,EyesClosed
-3898.2783434722837,-1504.4288640533525,-2824.5899468171533,-6664.440830283264,35715.47248547942,-316.7242189317011,6802.842831950526,5043.693488084494,0.0,0.0,0.0,2019-03-17T21:18:26.026165,7,EyesClosed
-4256.308586157392,-1869.9245893865336,-3187.5822767713403,-7008.210660005887,35434.57811290957,-37.08154405135442,6470.003005266548,4716.195728325335,0.0,0.0,0.0,2019-03-17T21:18:26.026919,7,EyesClosed
-4189.655684191666,-1802.5340798537827,-3209.9340212266475,-7064.045317655244,35376.307115114585,-606.4922340503018,6482.631740883797,4655.868370040461,0.0,0.0,0.0,2019-03-17T21:18:26.036124,7,EyesClosed
-3824.5399385142255,-1430.4669416507413,-2848.8415895511616,-6726.735142080205,35657.916743507,-960.4768109889998,6824.63578279445,4972.6819959499835,0.006,1.008,0.24,2019-03-17T21:18:26.036771,7,EyesClosed
-3841.8625404670884,-1458.6971948977941,-2789.095376622126,-6635.070638068991,35750.22944810742,-444.2632727936832,6853.089553486056,5064.52531391684,0.0,0.0,0.0,2019-03-17T21:18:26.042620,7,EyesClosed
-4207.045341377895,-1822.427132419006,-3134.943918579092,-6951.548987811683,35490.70334323685,-13.16517748417586,6524.876537904327,4763.871999248505,0.0,0.0,0.0,2019-03-17T21:18:26.043322,7,EyesClosed
-4227.2066148765825,-1832.3066034682518,-3232.7551523155157,-7078.931579462479,35378.74345526021,-462.21172359129474,6463.006909252037,4641.496198355699,0.0,0.0,0.0,2019-03-17T21:18:26.049392,7,EyesClosed
-3868.90815125801,-1466.4308984793304,-2904.7433024338848,-6783.396814274409,35625.81963846918,-956.1405725646703,6783.8885526524255,4919.887175546548,0.0,0.0,0.0,2019-03-17T21:18:26.050043,7,EyesClosed
-3802.948153370399,-1403.4883860931857,-2758.898169863006,-6613.858832580904,35782.43831186752,-556.5137334482353,6901.391673253975,5088.173459550555,0.0,0.0,0.0,2019-03-17T21:18:26.057019,7,EyesClosed
-4146.539169137379,-1762.4574020454172,-3067.240484623967,-6886.058376557634,35566.90044008499,-9.097159993309974,6609.2096697342,4837.453941995375,0.0,0.0,0.0,2019-03-17T21:18:26.057662,7,EyesClosed
-4274.257036955004,-1893.1704036200529,-3269.3449579888534,-7110.64870484456,35375.56950754756,-348.46369605823713,6453.574473091898,4625.492349325699,0.0,0.0,0.0,2019-03-17T21:18:26.064928,7,EyesClosed
-3934.4434660009706,-1547.9030070189247,-2978.884038792138,-6860.577387878584,35587.017010094765,-931.5313019193771,6753.847808104492,4862.6220062520515,0.0,0.0,0.0,2019-03-17T21:18:26.065654,7,EyesClosed
-3776.7072053798684,-1385.0034934286468,-2749.1751610249476,-6621.972515818181,35803.806579566786,-676.7661186177872,6953.359479112563,5096.354198021198,0.0,0.0,0.0,2019-03-17T21:18:26.071698,7,EyesClosed
-4093.967866178497,-1707.8073868521915,-3006.4660914499873,-6841.667812069394,35630.93818794945,-63.054271108421226,6697.99079871068,4892.640399055529,0.012,1.012,0.24,2019-03-17T21:18:26.078640,7,EyesClosed
-4282.0354440254505,-1895.2938193433072,-3247.2167309780993,-7091.962646479923,35419.781258080155,-216.94603168321035,6493.941723578182,4650.526303115643,0.0,0.0,0.0,2019-03-17T21:18:26.078955,7,EyesClosed
-3996.1119289531625,-1597.9038593654466,-3026.046219592836,-6911.181737325399,35567.77215811874,-856.6082545051879,6726.153996724367,4819.617249920041,0.0,0.0,0.0,2019-03-17T21:18:26.086065,7,EyesClosed
-3749.16985621093,-1357.6226064708958,-2736.4570184298777,-6619.916155328293,35829.30991999029,-756.8524190011525,6986.015377761767,5101.428044012552,0.0,0.0,0.0,2019-03-17T21:18:26.086437,7,EyesClosed
-4027.7843508463325,-1646.407144833463,-2944.752925008884,-6782.703910196294,35705.88358710809,-114.41857986671685,6780.2452183062105,4953.325385251687,0.0,0.0,0.0,2019-03-17T21:18:26.094278,7,EyesClosed
-4294.015979053495,-1914.9633544639773,-3253.206998492122,-7089.146326678554,35450.60431368402,-111.28933564297387,6510.727883664118,4659.77992532014,0.0,0.0,0.0,2019-03-17T21:18:26.094779,7,EyesClosed
-4062.6307204521563,-1669.563552089161,-3096.4765663715084,-6972.514924110762,35545.778041574726,-748.0681834302168,6686.2114293827335,4767.247112661256,0.0,0.0,0.0,2019-03-17T21:18:26.101429,7,EyesClosed
-3764.011414529254,-1372.866496189415,-2770.0963938351147,-6649.9345481317705,35824.928978077056,-820.6890011655095,6985.791860317214,5075.365909977664,0.0,0.0,0.0,2019-03-17T21:18:26.102175,7,EyesClosed
-3953.1742278545175,-1574.8815625764803,-2884.917305102027,-6720.811929799549,35776.91743098706,-187.44172900220502,6858.789248322159,5012.445749335975,0.0,0.0,0.0,2019-03-17T21:18:26.109165,7,EyesClosed
-4275.307568944403,-1897.1043106441869,-3222.0486667214236,-7043.839340667647,35506.21545388883,-18.730761853547317,6550.961023683671,4703.2540682857125,0.0,0.0,0.0,2019-03-17T21:18:26.109920,7,EyesClosed
-4137.844340544265,-1747.7052507049145,-3168.9856253845246,-7028.260174782297,35506.17075039992,-639.3269466551479,6627.3369344874545,4713.513518990698,0.014,1.01,0.23600000000000002,2019-03-17T21:18:26.117219,7,EyesClosed
-3782.920990338444,-1386.389301584876,-2808.1837663869583,-6686.546705549563,35796.78813180782,-871.7627372458861,6960.869665249546,5037.390296148097,0.0,0.0,0.0,2019-03-17T21:18:26.117902,7,EyesClosed
-3876.3736339060824,-1494.3705790484644,-2819.2478798923353,-6665.826638439494,35833.53439969235,-278.2345149796623,6931.901804435469,5070.895561086602,0.0,0.0,0.0,2019-03-17T21:18:26.125383,7,EyesClosed
-4240.841178994319,-1858.3687375031398,-3176.1158318657676,-7004.008532048289,35555.94808530189,39.629642919259425,6607.019198777581,4755.51244682222,0.0,0.0,0.0,2019-03-17T21:18:26.126265,7,EyesClosed
-4191.7567481704655,-1802.8917077650676,-3210.179890415656,-7074.7965067382465,35487.70820947984,-506.3564188905262,6604.806376076505,4685.21621051028,0.0,0.0,0.0,2019-03-17T21:18:26.131564,7,EyesClosed
-3813.0287901197426,-1416.4747496217192,-2845.3547174161336,-6737.039296274102,35771.150680917584,-874.668464025076,6950.990194200301,5005.539060299285,0.0,0.0,0.0,2019-03-17T21:18:26.132479,7,EyesClosed
-3815.6439442210135,-1428.5893951164956,-2765.089603077126,-6633.595422934941,35877.09794963574,-370.9719027247313,7008.322418728164,5115.5543465083065,0.0,0.0,0.0,2019-03-17T21:18:26.138951,7,EyesClosed
-4182.413718988147,-1798.8013385297465,-3100.723397818017,-6947.905653465468,35625.37260358007,75.75006195903563,6693.98983645318,4825.473406967331,0.0,0.0,0.0,2019-03-17T21:18:26.146650,7,EyesClosed
-4226.6478212652,-1830.3172982117294,-3223.4344748776525,-7097.036492471278,35492.916165937924,-359.5054578191588,6613.478852925165,4680.634102896941,0.0,0.0,0.0,2019-03-17T21:18:26.147343,7,EyesClosed
-3870.7186425588898,-1470.1636398033668,-2900.898802387572,-6813.415207077886,35730.7834304313,-869.6840250115425,6929.2866503341975,4950.285548005766,0.0,0.0,0.0,2019-03-17T21:18:26.154757,7,EyesClosed
-3783.5021356942816,-1394.70415052225,-2733.148960250492,-6632.924870601281,35898.890900479666,-495.9181542298978,7063.195951365942,5131.692306005038,0.0,0.0,0.0,2019-03-17T21:18:26.155400,7,EyesClosed
-4112.095130931751,-1736.6411371995375,-3017.6196119331853,-6882.370338722509,35698.01577305982,77.47114628209428,6791.309331811587,4899.748253792316,0.01,1.008,0.23600000000000002,2019-03-17T21:18:26.161318,7,EyesClosed
-4251.502961099501,-1870.3045690422737,-3233.626870349273,-7109.620524599615,35495.128988639,-221.01404917407623,6620.676114639773,4679.471812185266,0.0,0.0,0.0,2019-03-17T21:18:26.162137,7,EyesClosed
-3925.234547285384,-1528.5240445761735,-2959.9297594940376,-6870.50156241674,35686.66108687653,-812.0388760613056,6900.36349300903,4905.291486417233,0.0,0.0,0.0,2019-03-17T21:18:26.169386,7,EyesClosed
-3755.1601237249524,-1359.8577809164265,-2725.929346791428,-6625.660553653307,35898.8238452463,-584.8780971620199,7099.048149472255,5144.633966044661,0.0,0.0,0.0,2019-03-17T21:18:26.170171,7,EyesClosed
-4056.819266893777,-1663.9979677197896,-2962.924893251049,-6821.841814737537,35740.93112241401,53.21950354808612,6862.49963790174,4965.820010402204,0.0,0.0,0.0,2019-03-17T21:18:26.177348,7,EyesClosed
-4271.9995107650175,-1877.2559615678742,-3232.196358704133,-7092.4096813690285,35501.11925615302,-58.449811750627966,6633.506015957119,4706.02568459817,0.0,0.0,0.0,2019-03-17T21:18:26.178130,7,EyesClosed
-3996.8271847757323,-1598.9096878659354,-3029.734257427962,-6921.977629897312,35627.58542628115,-678.3083889852035,6853.201312208333,4860.073907384147,0.0,0.0,0.0,2019-03-17T21:18:26.184704,7,EyesClosed
-3741.9949462407767,-1344.9268156202813,-2728.7233148483415,-6619.513823928097,35888.65380151913,-586.7556436962657,7121.22107997192,5148.612576557705,0.0,0.0,0.0,2019-03-17T21:18:26.185307,7,EyesClosed
-3986.813603259755,-1601.5248419672064,-2902.128148332614,-6752.596110414996,35783.93587874602,87.86470745381206,6933.555833525162,5027.75669428786,0.0,0.0,0.0,2019-03-17T21:18:26.192144,7,EyesClosed
-4271.574827620367,-1884.9449616605,-3217.913593997192,-7067.06280315671,35516.72077378282,144.12404824781993,6651.700335943739,4727.863338931005,0.0,0.0,0.0,2019-03-17T21:18:26.192966,7,EyesClosed
-4064.664729197589,-1664.8026305201806,-3083.557258076341,-6974.325415411641,35589.18512930693,-470.43716555084774,6813.951648944813,4814.766921373239,0.004,1.018,0.23600000000000002,2019-03-17T21:18:26.199167,7,EyesClosed
-3748.5440073661816,-1344.613891197907,-2739.6980213758975,-6640.792684649549,35876.00271415743,-559.3971084829699,7125.534966651794,5128.563061781295,0.0,0.0,0.0,2019-03-17T21:18:26.207584,7,EyesClosed
-3906.414378454015,-1516.476454314763,-2823.1370834275585,-6685.94320844927,35853.941542380046,72.95609390212225,7024.974468347367,5090.453337484996,0.0,0.0,0.0,2019-03-17T21:18:26.208394,7,EyesClosed
-4234.672097524654,-1844.7118216409472,-3169.9020469071925,-7021.219375278875,35577.6963326569,261.80598280501164,6709.904278505359,4771.51629585222,0.0,0.0,0.0,2019-03-17T21:18:26.215824,7,EyesClosed
-4114.419712355103,-1711.7859973652362,-3129.847720843282,-7017.710151399392,35574.365922733065,-340.17119886531816,6782.659206707383,4770.689281307374,0.0,0.0,0.0,2019-03-17T21:18:26.216709,7,EyesClosed
-3775.4108042014605,-1369.7596037101275,-2786.5249260097657,-6691.397034096365,35854.58974296925,-609.4426643184024,7111.855699045146,5082.764337392371,0.0,0.0,0.0,2019-03-17T21:18:26.221909,7,EyesClosed
-3852.971357461376,-1459.9265408428362,-2787.5531062547097,-6657.9811761356805,35900.835502247275,-35.025183561466164,7092.566143580216,5126.8866809471465,0.0,0.0,0.0,2019-03-17T21:18:26.222864,7,EyesClosed
-4210.8898414242085,-1822.6953533524697,-3142.163532038156,-6988.250552207298,35627.42896406996,308.90110837234363,6761.939139597313,4815.146901028979,0.0,0.0,0.0,2019-03-17T21:18:26.229841,7,EyesClosed
-4172.288378749893,-1772.6945010059478,-3182.262561590977,-7060.178465864476,35560.105509770576,-203.11030186537528,6758.608729673473,4742.839007716061,0.0,0.0,0.0,2019-03-17T21:18:26.230511,7,EyesClosed
-3802.948153370399,-1401.0073424586467,-2833.441237621455,-6738.268642219144,35832.7073851475,-607.7662834842544,7096.410643626528,5047.8732642976365,0.0,0.0,0.0,2019-03-17T21:18:26.237587,7,EyesClosed
-3800.6459236915025,-1407.9587349842473,-2745.3306609786346,-6624.095931541435,35953.85384009527,-141.01715576853226,7154.033440832311,5165.1528674546325,-0.002,1.016,0.234,2019-03-17T21:18:26.238263,7,EyesClosed
-4156.016308786429,-1768.2912073482523,-3064.7370892449726,-6919.0719031181225,35753.403395820074,332.8398266839775,6844.014745237201,4892.483936844342,0.0,0.0,0.0,2019-03-17T21:18:26.244411,7,EyesClosed
-4211.0686553798505,-1823.008277774844,-3196.724140253561,-7078.775117251292,35633.218065883884,-69.22335257808598,6746.784656856616,4737.921623935893,0.0,0.0,0.0,2019-03-17T21:18:26.245063,7,EyesClosed
-3867.4552878684153,-1472.9129043713695,-2892.963933105938,-6806.463814552286,35858.07661510428,-595.6516379894779,7051.39423029354,4994.65376074955,0.0,0.0,0.0,2019-03-17T21:18:26.252413,7,EyesClosed
-3770.4040134434717,-1381.5389730380743,-2723.671820601442,-6617.390408204843,36032.08494568884,-255.4133838907938,7198.602819276192,5184.554181641839,0.0,0.0,0.0,2019-03-17T21:18:26.253126,7,EyesClosed
-4105.7025320175335,-1727.4769219728616,-3008.6789141510626,-6868.713422860315,35827.11944903367,311.29274502906145,6917.216708328332,4953.235978273867,0.0,0.0,0.0,2019-03-17T21:18:26.259550,7,EyesClosed
-4245.736211030032,-1866.460068995961,-3218.271221908477,-7093.013178469322,35632.167533894484,47.65391917871466,6744.594185899996,4735.798208212639,0.0,0.0,0.0,2019-03-17T21:18:26.267154,7,EyesClosed
-3909.4318639554817,-1524.768951507682,-2948.8432942442055,-6855.97292852079,35828.75112637891,-541.1804367518946,7025.1979857919205,4958.309824265221,0.0,0.0,0.0,2019-03-17T21:18:26.267905,7,EyesClosed
-3709.696675502858,-1327.8947863453373,-2695.8215470101295,-6597.8102800619945,36064.83025131586,-338.5842250089914,7245.72029658798,5212.158586044144,0.0,0.0,0.0,2019-03-17T21:18:26.275260,7,EyesClosed
-4030.3100979697824,-1653.0679646811445,-2947.2339686434234,-6813.281096611154,35899.941432469066,264.599950861925,6992.251514464798,5016.8266912492145,0.0,0.0,0.0,2019-03-17T21:18:26.275918,7,EyesClosed
-4263.394089149724,-1883.2909325708072,-3222.518053354985,-7093.616675569615,35660.77776679728,153.37767045231706,6751.165598769856,4746.169417639901,-0.002,1.012,0.242,2019-03-17T21:18:26.281940,7,EyesClosed
-4010.618211104657,-1618.4227607754185,-3035.3892487751546,-6944.865816219547,35778.45970135447,-492.2971716281381,6956.622833803039,4882.962093706381,0.0,0.0,0.0,2019-03-17T21:18:26.282687,7,EyesClosed
-3747.806399799156,-1358.1814000822783,-2728.1421694925034,-6639.630393937874,36050.6592453312,-456.8696566664764,7238.455979640005,5179.078004250289,0.0,0.0,0.0,2019-03-17T21:18:26.290001,7,EyesClosed
-3969.915684451543,-1592.3382749960751,-2874.9484270749604,-6748.103409779479,35977.814910151355,195.2648395615625,7083.513687075817,5088.57579095075,0.0,0.0,0.0,2019-03-17T21:18:26.290649,7,EyesClosed
-4255.615682079278,-1874.685510955514,-3197.0147129314796,-7061.4748670428835,35713.23731103388,262.3647764163943,6799.758291215693,4789.3306361831,0.0,0.0,0.0,2019-03-17T21:18:26.296602,7,EyesClosed
-4056.573397704768,-1673.117479457555,-3078.4387085960757,-6986.551819628695,35773.92229723004,-369.5413910795917,6943.32354585213,4863.046689396702,0.0,0.0,0.0,2019-03-17T21:18:26.297285,7,EyesClosed
-3745.571225353626,-1369.290217076566,-2743.743687122308,-6669.782897208082,36051.910943020695,-513.039590482663,7250.078886756764,5169.332643667775,0.0,0.0,0.0,2019-03-17T21:18:26.304620,7,EyesClosed
-3888.823555567689,-1520.566823550084,-2803.355789584612,-6691.709958518739,36050.88276277576,113.56921357741518,7174.954673642478,5160.21313193001,0.0,0.0,0.0,2019-03-17T21:18:26.305315,7,EyesClosed
-4224.412646819669,-1857.8546473806678,-3150.9254158646368,-7018.067779310678,35775.59867806419,334.98559415168694,6859.728021589282,4851.066154368657,0.0,0.0,0.0,2019-03-17T21:18:26.312765,7,EyesClosed
-4132.8822532751865,-1758.5458467657384,-3145.985680340014,-7049.606090737116,35738.40537529056,-269.47263115318196,6895.6472749289605,4818.09733129708,0.0,0.0,0.0,2019-03-17T21:18:26.313644,7,EyesClosed
-3781.401071715483,-1400.582659313996,-2793.319856324179,-6716.542746608585,36023.36776535127,-558.7042044048553,7232.957450504,5137.615518285695,0.002,1.012,0.248,2019-03-17T21:18:26.319872,7,EyesClosed
-3842.175464889463,-1468.1296310579337,-2773.538562481232,-6664.731402961183,36083.47160619159,-6.303191936396591,7231.9069185146,5200.334513227286,0.0,0.0,0.0,2019-03-17T21:18:26.326142,7,EyesClosed
-4188.627503946723,-1819.2308329618972,-3109.9993717669695,-6977.678177079938,35826.13597227764,369.2284666572174,6919.384827540497,4908.73365506335,0.0,0.0,0.0,2019-03-17T21:18:26.327042,7,EyesClosed
-4168.533285681401,-1792.6993122934477,-3174.037119631424,-7071.756669492325,35740.84171543619,-130.6682980857251,6892.227458027299,4816.040970807191,0.0,0.0,0.0,2019-03-17T21:18:26.334189,7,EyesClosed
-3801.1153103250635,-1418.0393717335908,-2831.451932364933,-6758.541674440107,36002.200663352094,-558.2795212602045,7218.965258474977,5109.184099338544,0.0,0.0,0.0,2019-03-17T21:18:26.335061,7,EyesClosed
-3770.0910890210976,-1388.7809382415937,-2711.356009406568,-6619.983210561659,36137.138144628785,-104.91908847321135,7302.449024015549,5250.827103951825,0.0,0.0,0.0,2019-03-17T21:18:26.342360,7,EyesClosed
-4138.000802755452,-1772.9403701949561,-3034.942213886048,-6918.289592062187,35898.24269989046,376.8057080275665,6991.223334219853,4972.771402927805,0.0,0.0,0.0,2019-03-17T21:18:26.343107,7,EyesClosed
-4224.12207414175,-1858.100516569676,-3195.9641809420805,-7100.255143672842,35740.77466020282,-14.014543773477529,6874.010786296223,4792.549287384664,0.0,0.0,0.0,2019-03-17T21:18:26.349316,7,EyesClosed
-3857.62052030808,-1482.2782852981431,-2875.4625171974326,-6816.186823390344,35978.239593296006,-541.6721751299114,7188.566886015759,5055.204636478977,0.0,0.0,0.0,2019-03-17T21:18:26.350097,7,EyesClosed
-3737.681059560902,-1368.2173333427113,-2684.556267804655,-6612.271858724578,36163.24498215258,-230.17826440075214,7342.324536123817,5253.0846301418105,0.0,0.0,0.0,2019-03-17T21:18:26.357082,7,EyesClosed
-4074.834772924754,-1713.7753026217583,-2969.9433410100155,-6858.6104343665165,35965.40969197866,341.4899517881813,7060.916073431501,5025.253298908866,0.004,1.01,0.242,2019-03-17T21:18:26.357645,7,EyesClosed
-4229.0841614108285,-1864.291949783796,-3193.818413474371,-7091.806184268736,35767.46264308246,109.54589957545991,6875.664815385916,4799.053645021158,0.0,0.0,0.0,2019-03-17T21:18:26.364826,7,EyesClosed
-3921.5018059613476,-1543.7455825502375,-2948.731535521929,-6884.270237001209,35940.30868295535,-505.86468051250944,7133.872167333623,5000.442862563475,0.0,0.0,0.0,2019-03-17T21:18:26.365472,7,EyesClosed
-3715.6869430168804,-1343.3174900194992,-2689.160727162448,-6617.189242504745,36178.310057915456,-341.95933842174276,7362.128181711219,5264.774592491936,0.0,0.0,0.0,2019-03-17T21:18:26.372988,7,EyesClosed
-4006.416083147059,-1645.110743655055,-2908.632505969108,-6792.739843456727,36039.75159403701,298.1275675448856,7136.755542368358,5104.400826025108,0.0,0.0,0.0,2019-03-17T21:18:26.373866,7,EyesClosed
-4246.406763363691,-1885.302589571785,-3196.813547231382,-7085.4806405878835,35793.725942817444,223.22687187515163,6884.963141079324,4828.759113402261,0.0,0.0,0.0,2019-03-17T21:18:26.379175,7,EyesClosed
-3990.9933794728972,-1623.4519032778626,-3016.3232107547774,-6946.005755186768,35909.75384828494,-412.9037753228874,7087.380538866585,4962.914283623014,0.0,0.0,0.0,2019-03-17T21:18:26.379947,7,EyesClosed
-3719.531443063193,-1345.8879406318595,-2703.6223058250316,-6637.752847403628,36183.629773095825,-414.42369394584824,7373.281702194417,5263.9475779470895,0.0,0.0,0.0,2019-03-17T21:18:26.386600,7,EyesClosed
-3938.869111403121,-1571.4840974192737,-2841.510217369821,-6734.424142172831,36115.121676340306,229.4630085781823,7225.603726578203,5184.777699086392,0.0,0.0,0.0,2019-03-17T21:18:26.394514,7,EyesClosed
-4252.955824489096,-1886.5766390057372,-3181.793174957416,-7064.179428121976,35835.255484015404,309.5269572170922,6921.79881594167,4874.602541280096,0.0,0.0,0.0,2019-03-17T21:18:26.395432,7,EyesClosed
-4069.492705999936,-1697.7491018473033,-3081.433842353087,-7001.058101780189,35882.10474039373,-316.36659102041614,7048.533207003261,4932.02417278578,0.002,1.016,0.24,2019-03-17T21:18:26.401467,7,EyesClosed
-3744.1183619640306,-1368.7984786985492,-2732.9924980393052,-6665.089030872468,36170.37518863382,-479.08729065505156,7368.766649814445,5251.2070836075645,0.0,0.0,0.0,2019-03-17T21:18:26.402344,7,EyesClosed
-3879.301712429728,-1505.2111751092882,-2782.278094563257,-6680.198810124256,36172.67741831272,125.41563813872793,7295.58703846777,5245.596795749283,0.0,0.0,0.0,2019-03-17T21:18:26.409224,7,EyesClosed
-4214.332010070326,-1848.0869350536987,-3127.9478225645807,-7010.199965262409,35901.7742755144,377.05157721657486,6978.482839880328,4935.511044920808,0.0,0.0,0.0,2019-03-17T21:18:26.409906,7,EyesClosed
-4123.226299670494,-1754.8131054417022,-3127.5454911643856,-7046.365087791096,35867.53140300887,-203.8702611768557,7012.949229830412,4897.222506668867,0.0,0.0,0.0,2019-03-17T21:18:26.417206,7,EyesClosed
-3767.431231430916,-1398.3698366129204,-2774.6114462150867,-6718.420293142831,36147.37524358931,-524.617794110512,7345.096152436275,5209.275211009409,0.0,0.0,0.0,2019-03-17T21:18:26.418060,7,EyesClosed
-3823.0870751246307,-1459.2336367647215,-2743.095486533104,-6655.500132501142,36209.71425887517,-1.9222500231564075,7345.051448947364,5272.7541652624805,0.0,0.0,0.0,2019-03-17T21:18:26.425703,7,EyesClosed
-4168.533285681401,-1812.0782747361989,-3066.860504968227,-6959.193284415399,35961.76635763244,403.9183740518539,7029.802445149714,4987.1212228681115,0.0,0.0,0.0,2019-03-17T21:18:26.426331,7,EyesClosed
-4166.8122013583425,-1808.9043270235452,-3149.0478693303908,-7071.600207281138,35865.22917332997,-72.7772799464798,6978.214618946865,4873.7755267352495,0.0,0.0,0.0,2019-03-17T21:18:26.432052,7,EyesClosed
-3806.077397594142,-1442.9839185457133,-2813.3917228450446,-6772.153886813389,36121.55897874344,-531.0774482580958,7297.084605346276,5157.128591195177,0.0,0.0,0.0,2019-03-17T21:18:26.432825,7,EyesClosed
-3754.3778126690167,-1395.8217377450155,-2682.254038125758,-6616.78691110455,36264.8113089575,-102.50510007203819,7396.102833283286,5311.1991657256085,-0.002,1.018,0.232,2019-03-17T21:18:26.440459,7,EyesClosed
-4109.256459385927,-1752.1308961070654,-2996.0948820227245,-6892.093347560567,36038.43284111415,412.2332229892282,7096.075367459699,5054.489380656407,0.0,0.0,0.0,2019-03-17T21:18:26.441250,7,EyesClosed
-4208.408797789669,-1843.594234418182,-3166.504581749986,-7075.690576516459,35876.919135680095,63.94834088663351,6972.269054921753,4878.379986093043,0.0,0.0,0.0,2019-03-17T21:18:26.448504,7,EyesClosed
-3873.3114449157056,-1501.2772680851542,-2878.8823340990944,-6821.1042071705115,36090.60181267283,-492.3865786059593,7266.641529398147,5124.20447161251,0.0,0.0,0.0,2019-03-17T21:18:26.454676,7,EyesClosed
-3729.0979896900644,-1360.3718710388985,-2670.0946891420713,-6596.156250972302,36296.528434339576,-195.9353918952217,7448.741191475534,5348.906558621712,0.0,0.0,0.0,2019-03-17T21:18:26.455463,7,EyesClosed
-4039.384906218637,-1682.728729573337,-2931.9006719470826,-6818.1090734135005,36123.43652527768,412.07676077804103,7197.395825075606,5150.803047514325,0.0,0.0,0.0,2019-03-17T21:18:26.461422,7,EyesClosed
-4222.110417140772,-1853.0937258116874,-3175.7358522100276,-7078.7304137623805,35908.032763961884,201.14334835330826,6991.513906897772,4911.080588231157,0.0,0.0,0.0,2019-03-17T21:18:26.462223,7,EyesClosed
-3940.7243061929116,-1543.7679342946929,-2942.8753784746386,-6886.930094591391,36065.389044927244,-420.592775415513,7232.890395270633,5093.917857875569,0.0,0.0,0.0,2019-03-17T21:18:26.469439,7,EyesClosed
-3733.3895246254833,-1336.8801876163707,-2678.2083723793476,-6625.660553653307,36300.596451830446,-300.27333501259506,7465.236778883551,5350.7617534115025,0.0,0.0,0.0,2019-03-17T21:18:26.470218,7,EyesClosed
-4007.1983942029947,-1620.7920456876811,-2881.4974882003653,-6792.605732989995,36175.024351480526,329.7105824602345,7252.425819924572,5200.4909754384735,0.0,0.0,0.0,2019-03-17T21:18:26.477371,7,EyesClosed
-4260.51071411499,-1875.0207871223436,-3177.7698609554604,-7090.018044712311,35921.86849377972,287.24226799515105,6987.602351618094,4917.048504000724,0.004,1.016,0.232,2019-03-17T21:18:26.478059,7,EyesClosed
-4019.089522253218,-1630.112723125544,-3013.506890953409,-6965.027089718234,36023.457172329094,-353.2022658827622,7174.597045731193,5033.456389123963,0.0,0.0,0.0,2019-03-17T21:18:26.484393,7,EyesClosed
-3721.0290099416984,-1335.9861178381584,-2683.3939770929787,-6641.642050938851,36306.54201585556,-380.1137662069519,7472.277578386972,5338.2000730276195,0.0,0.0,0.0,2019-03-17T21:18:26.485103,7,EyesClosed
-3912.0246663122975,-1544.2373209282543,-2804.2945628517346,-6721.773054811127,36249.0086256276,255.88277052435527,7333.361486597239,5262.159438390665,0.0,0.0,0.0,2019-03-17T21:18:26.492154,7,EyesClosed
-4221.797492718398,-1860.7827259043129,-3142.9681948385473,-7047.907358158513,35971.511718214955,370.10018469097434,7022.404017735007,4944.965832825403,0.0,0.0,0.0,2019-03-17T21:18:26.492785,7,EyesClosed
-4071.213790322994,-1692.9658285338676,-3072.627255037696,-7018.157186288498,35987.113235844765,-264.6670060952909,7113.532079879294,4966.043527846758,0.0,0.0,0.0,2019-03-17T21:18:26.500097,7,EyesClosed
-3722.660687286936,-1340.0094318401136,-2706.9527157488724,-6674.141487376868,36283.27384987758,-448.979490873753,7444.784932706944,5292.513107360972,0.0,0.0,0.0,2019-03-17T21:18:26.501024,7,EyesClosed
-3832.363049073583,-1450.9411395718028,-2718.3968089099894,-6653.823751666993,36316.66735609381,167.95100783717726,7404.887068854221,5318.105854762299,0.0,0.0,0.0,2019-03-17T21:18:26.507049,7,EyesClosed
-4193.097852837784,-1819.4096469175397,-3078.2598946404332,-6997.2583052227865,36030.18504741014,434.5179122111693,7064.179428121976,4992.507993281841,0.0,0.0,0.0,2019-03-17T21:18:26.513981,7,EyesClosed
-4125.394418882659,-1743.2572535583083,-3091.939162247081,-7047.34856454713,35984.27456429894,-131.47296088611614,7083.021948697799,4942.171864768489,0.0,0.0,0.0,2019-03-17T21:18:26.514765,7,EyesClosed
-3769.1299640095194,-1380.6449032598618,-2741.284995232224,-6730.736104337705,36262.53143102305,-488.83265123756547,7414.61007769228,5248.055487639366,0.0,1.01,0.24,2019-03-17T21:18:26.521585,7,EyesClosed
-3786.519621195748,-1397.6545807903506,-2674.9226659444175,-6633.528367701575,36360.92381011532,37.61798591828179,7451.803380465911,5347.63250918776,0.0,0.0,0.0,2019-03-17T21:18:26.522475,7,EyesClosed
-4146.226244715005,-1763.7538032238251,-3019.5865654452523,-6945.402258086474,36106.42684774719,456.9367118998423,7130.050019031766,5055.584616134717,0.0,0.0,0.0,2019-03-17T21:18:26.529632,7,EyesClosed
-4168.019195558929,-1778.9082859645232,-3124.460950429553,-7069.186218879965,36002.4465325411,-1.3411046673184237,7071.488448558861,4934.281698975766,0.0,0.0,0.0,2019-03-17T21:18:26.530280,7,EyesClosed
-3805.160976071474,-1414.2619269206439,-2798.863088949095,-6771.416279246364,36262.330265322955,-474.25931385270525,7396.728682128034,5217.813577391336,0.0,0.0,0.0,2019-03-17T21:18:26.536734,7,EyesClosed
-3723.822977998612,-1342.870455130393,-2645.9771568747947,-6597.363245172888,36426.146200435905,-56.03582334945481,7518.9703725541085,5392.604219031838,0.0,0.0,0.0,2019-03-17T21:18:26.537649,7,EyesClosed
-4080.0874328717514,-1708.8132153526803,-2962.3884513841217,-6884.829030612592,36190.98349702162,468.0455288941299,7213.287915383329,5130.462960059996,0.0,0.0,0.0,2019-03-17T21:18:26.544202,7,EyesClosed
-4188.44868999108,-1816.2804026937965,-3141.5376831934077,-7088.967512722911,36014.67293675816,139.9442720346775,7070.013233424811,4939.6908211339505,0.0,0.0,0.0,2019-03-17T21:18:26.544896,7,EyesClosed
-3855.5418080737363,-1478.925523629847,-2857.0446797662594,-6844.97587024878,36222.633567170335,-436.23899653422797,7362.798734044878,5177.066347249312,0.0,0.0,0.0,2019-03-17T21:18:26.552328,7,EyesClosed
-3682.315788545107,-1318.4399984407423,-2627.3805054879795,-6606.214535977189,36444.92166577836,-170.45440321617167,7562.578625986413,5417.705228055147,0.0,0.0,0.0,2019-03-17T21:18:26.552992,7,EyesClosed
-4005.41025464657,-1650.5198658132394,-2890.5499447047646,-6833.576480576573,36265.52656478007,429.108790052985,7302.896058904656,5212.404455233152,0.006,1.008,0.242,2019-03-17T21:18:26.560458,7,EyesClosed
-4220.8140159623645,-1856.4017839910728,-3156.781572911927,-7106.938315264978,36029.42508809866,242.94111048473246,7080.719719018904,4950.486713705864,0.0,0.0,0.0,2019-03-17T21:18:26.561222,7,EyesClosed
-3924.0946083181634,-1548.439448885852,-2927.5197300338427,-6919.429531029407,36184.523842874034,-384.53941160910273,7323.951402181555,5127.333715836253,0.0,0.0,0.0,2019-03-17T21:18:26.566747,7,EyesClosed
-3695.2574485847294,-1310.1698529922787,-2648.8828836539847,-6640.50211197163,36430.191866182315,-290.95265757473203,7569.507666767558,5397.611009789826,0.0,0.0,0.0,2019-03-17T21:18:26.573932,7,EyesClosed
-3959.9915099133864,-1585.3198272371087,-2836.7716475452958,-6787.576590487551,36313.38164965888,348.2848821025946,7370.107754481764,5261.824162223836,0.0,0.0,0.0,2019-03-17T21:18:26.574866,7,EyesClosed
-4211.895669924697,-1851.752621144369,-3130.7641423659497,-7078.015157939811,36063.377387926266,349.7153937477343,7107.720626320914,4981.4885832653745,0.0,0.0,0.0,2019-03-17T21:18:26.581772,7,EyesClosed
-3982.7679375133444,-1615.852310163058,-2985.6342656176407,-6973.945435755902,36145.96708368863,-302.35204724693864,7275.246951013441,5077.556380934284,0.0,0.0,0.0,2019-03-17T21:18:26.582593,7,EyesClosed
-3678.761861176713,-1306.8841465573487,-2641.909139383929,-6645.017164351602,36434.57280809555,-361.6735770313236,7582.114050640351,5390.369044586307,0.0,0.0,0.0,2019-03-17T21:18:26.589900,7,EyesClosed
-3871.947988503932,-1507.021666410168,-2740.4579806873776,-6714.419330885331,36391.188072107805,273.58535213295846,7457.078392157364,5334.824959614869,0.0,0.0,0.0,2019-03-17T21:18:26.590696,7,EyesClosed
-4203.044379120395,-1852.713746155947,-3086.083005199791,-7057.3621460631075,36103.90110062374,416.88238583593204,7136.17439701252,5013.6527435365615,0.0,0.0,0.0,2019-03-17T21:18:26.596459,7,EyesClosed
-4063.6589006971003,-1703.2923344722194,-3031.947080129037,-7042.565291233694,36107.43267624768,-204.89844142179984,7216.23834565143,5022.951069229969,0.006,1.01,0.23600000000000002,2019-03-17T21:18:26.597107,7,EyesClosed
-3730.1038181905533,-1372.8217927005044,-2688.2443056397806,-6716.162766952845,36384.594307493484,-440.30701402509385,7536.762361140533,5332.232157258053,0.0,0.0,0.0,2019-03-17T21:18:26.604433,7,EyesClosed
-3808.2231650618514,-1468.1296310579337,-2678.677759012909,-6679.304740346043,36428.69429930381,157.89272283228908,7513.985933540575,5373.53818101146,0.0,0.0,0.0,2019-03-17T21:18:26.605096,7,EyesClosed
-4146.740334837476,-1810.267783435319,-3012.590469430741,-6995.6713313664595,36162.037987952,479.86960171098735,7196.546458786304,5076.617607667161,0.0,0.0,0.0,2019-03-17T21:18:26.612624,7,EyesClosed
-4119.046523457351,-1766.9277509364786,-3073.4542695825426,-7079.825649240691,36080.431768945666,-78.76754746050209,7183.6271504911365,4994.564353771729,0.0,0.0,0.0,2019-03-17T21:18:26.613287,7,EyesClosed
-3752.746135323779,-1395.9781999562026,-2722.353067678579,-6753.221959259744,36357.36988274693,-453.4274880203591,7524.6030121568465,5308.114624990777,0.0,0.0,0.0,2019-03-17T21:18:26.621007,7,EyesClosed
