eeg1,eeg2,eeg3,eeg4,eeg5,eeg6,eeg7,eeg8,accx,accy,accz,iso_utc,session_id,command_name
0.0,0.0,0.0,0.0,0.0,0.0,0.0,0.0,0.014,1.004,0.254,2019-03-17T21:23:47.434136,9,EyesClosed
-16859.89849089366,-8919.24010744573,3703.7064079888355,-2555.4972953197116,27695.890092359794,8926.035037760144,10624.588802407838,10472.529884878384,0.0,0.0,0.0,2019-03-17T21:23:47.449903,9,EyesClosed
-17020.920457949695,-9086.922894349444,3569.7524034681805,-2643.227892306792,27531.671825846654,9097.159993309975,10461.577530095283,10365.196808003999,0.0,0.0,0.0,2019-03-17T21:23:47.457256,9,EyesClosed
-16992.958425636105,-9051.495379387783,3491.7448153191585,-2819.359638614612,27520.87593327474,8688.056014544489,10452.145093935143,10234.439102940452,0.0,0.0,0.0,2019-03-17T21:23:47.457650,9,EyesClosed
-16821.90052531964,-8866.266473086653,3622.8825000384454,-2743.3413557221124,27686.502359688566,8466.48317175903,10610.596610378816,10328.651705819573,0.0,0.0,0.0,2019-03-17T21:23:47.463948,9,EyesClosed
-16843.447606974558,-8890.987502454222,3707.729721990791,-2562.0016529562063,27708.96586286615,8832.202414536765,10623.806491351903,10459.40941088312,0.0,0.0,0.0,2019-03-17T21:23:47.464474,9,EyesClosed
-17004.871905430784,-9062.134809748508,3595.8815927364344,-2601.94422029784,27555.945820325116,9110.436929516427,10471.077021488789,10392.667101939573,0.0,0.0,0.0,2019-03-17T21:23:47.471956,9,EyesClosed
-17012.046815400936,-9063.31945220464,3490.0237309961,-2796.538507525743,27508.53777033541,8777.59710283245,10426.664105256094,10248.587757180663,0.0,0.0,0.0,2019-03-17T21:23:47.472350,9,EyesClosed
-16843.067627318815,-8883.007929683678,3596.9768282147443,-2774.4326322594443,27665.916403045227,8462.750430434995,10576.353737873285,10307.37284509812,0.034,1.0,0.252,2019-03-17T21:23:47.479004,9,EyesClosed
-16820.514717163413,-8866.042955642099,3712.267126115218,-2583.235810188748,27732.72576722214,8756.228835133175,10633.529500189961,10460.415239383608,0.0,0.0,0.0,2019-03-17T21:23:47.486971,9,EyesClosed
-16993.494867503032,-9054.334050933607,3621.6755058378585,-2585.716853823287,27585.60658521731,9104.066682346664,10487.684367619082,10422.149052876122,0.0,0.0,0.0,2019-03-17T21:23:47.487414,9,EyesClosed
-17038.93596398067,-9095.461260731372,3502.4065974243404,-2772.5997892141095,27503.888607488705,8862.623138740437,10415.19766035052,10273.88993190407,0.0,0.0,0.0,2019-03-17T21:23:47.493492,9,EyesClosed
-16889.738069741496,-8933.679334363858,3563.471563276239,-2809.927202454472,27629.393652605257,8463.577444979841,10537.349943798774,10278.628501728595,0.0,0.0,0.0,2019-03-17T21:23:47.493816,9,EyesClosed
-16825.09682477675,-8869.70864173277,3696.620904996503,-2625.8158833761076,27729.86474393186,8657.769400807549,10628.902689087712,10430.195680880033,0.0,0.0,0.0,2019-03-17T21:23:47.501576,9,EyesClosed
-16976.708707417096,-9032.630507067503,3639.4451426798278,-2572.6410833169325,27612.719251241597,9074.495324432293,10512.450100475562,10439.896337973636,0.0,0.0,0.0,2019-03-17T21:23:47.502092,9,EyesClosed
-17072.687098108185,-9126.463130290882,3490.0237309961,-2755.7242221503525,27488.287089858903,8928.963116283789,10395.349311274209,10279.209647084434,0.0,0.0,0.0,2019-03-17T21:23:47.509489,9,EyesClosed
-16928.473642882545,-8975.67826219538,3521.807911611547,-2829.2391096638576,27594.25671032151,8496.658026773695,10499.687254391582,10252.275795015788,0.0,0.0,0.0,2019-03-17T21:23:47.509895,9,EyesClosed
-16820.157089252127,-8865.908845175367,3668.8600383830117,-2656.549532002155,27727.11547936386,8584.142754571767,10620.386674450241,10403.284180555842,0.0,0.0,0.0,2019-03-17T21:23:47.517464,9,EyesClosed
-16944.276326212446,-9006.277800354696,3653.392631219939,-2561.487562833734,27640.23424866608,9025.880280242,10527.090493093789,10451.116913690199,0.038,1.002,0.244,2019-03-17T21:23:47.517884,9,EyesClosed
-17075.637528376286,-9135.113255395087,3503.1665567358204,-2723.4706549013445,27489.941118948595,8993.403195548439,10383.659348924082,10301.695502006472,0.0,0.0,0.0,2019-03-17T21:23:47.524901,9,EyesClosed
-16959.274346741957,-9010.882259712489,3506.116987003921,-2832.6812783099745,27564.148910540214,8549.78812334396,10462.02456498439,10241.524605932786,0.0,0.0,0.0,2019-03-17T21:23:47.525320,9,EyesClosed
-16823.934534065073,-8865.662975986359,3651.0680497965873,-2693.9887039647942,27708.652938443774,8512.885393248247,10597.699653828104,10370.762392373372,0.0,0.0,0.0,2019-03-17T21:23:47.531629,9,EyesClosed
-16913.92265724214,-8959.00386083172,3666.401346492928,-2564.013309957184,27653.28766742798,8950.018459560688,10536.791150187391,10449.976974722978,0.0,0.0,0.0,2019-03-17T21:23:47.532021,9,EyesClosed
-17065.780409071496,-9131.156996626496,3523.9536790792563,-2683.5280875597105,27499.842941742296,9040.185396693398,10385.089860569222,10327.377656385619,0.0,0.0,0.0,2019-03-17T21:23:47.538484,9,EyesClosed
-16997.540533249445,-9053.417629410938,3483.9217047598013,-2833.79886553274,27530.10720373478,8607.343865316376,10418.371608063175,10228.02415228178,0.0,0.0,0.0,2019-03-17T21:23:47.546474,9,EyesClosed
-16840.13954879517,-8887.522982063649,3625.4753023952608,-2728.2986317036907,27690.793894623985,8463.465686257565,10570.430525592628,10339.067618735746,0.0,0.0,0.0,2019-03-17T21:23:47.546926,9,EyesClosed
-16902.165639658648,-8957.550997442127,3675.8114309086122,-2570.5400193381333,27673.270126971023,8869.418069054851,10546.648269492181,10445.596032809739,0.0,0.0,0.0,2019-03-17T21:23:47.554510,9,EyesClosed
-17067.434438161188,-9130.285278592739,3542.7961996550803,-2654.1131918565266,27507.800162768384,9062.827713826622,10385.112212313677,10344.588499616206,0.0,0.0,0.0,2019-03-17T21:23:47.554972,9,EyesClosed
-17031.671647032697,-9082.340786736106,3471.695300542748,-2827.450970107433,27500.267624886947,8674.66731961576,10382.407651234586,10220.290448700243,0.04,1.008,0.234,2019-03-17T21:23:47.561119,9,EyesClosed
-16863.4300665176,-8914.076854476554,3596.753310770191,-2764.8213821436625,27663.90474604425,8427.233508495512,10539.160435099655,10303.885972963093,0.0,0.0,0.0,2019-03-17T21:23:47.561462,9,EyesClosed
-16873.354241055757,-8935.690991364836,3684.72977694628,-2586.0744817345717,27693.789028380994,8782.514486612617,10559.545226042894,10436.700038516527,0.0,0.0,0.0,2019-03-17T21:23:47.569149,9,EyesClosed
-17047.51903385151,-9118.260040075784,3576.6143890159597,-2623.133674041471,27536.633913115733,9077.468106444849,10406.659293968594,10373.95869183048,0.0,0.0,0.0,2019-03-17T21:23:47.569553,9,EyesClosed
-17056.884414778284,-9122.462168033382,3473.997530221645,-2807.692028008941,27488.309441603356,8766.68945153826,10364.034517292324,10233.41092269551,0.0,0.0,0.0,2019-03-17T21:23:47.577157,9,EyesClosed
-16893.649625021175,-8947.872692092978,3559.470601018739,-2802.50642329531,27629.84068749436,8428.596964907285,10501.050710803356,10273.46524875942,0.0,0.0,0.0,2019-03-17T21:23:47.577630,9,EyesClosed
-16857.57390947031,-8907.371331139962,3676.146707075442,-2611.3990082024347,27700.651013928775,8702.607000184895,10561.065144665856,10423.44545405453,0.0,0.0,0.0,2019-03-17T21:23:47.584259,9,EyesClosed
-17028.877678975783,-9083.860705359068,3598.988485215722,-2596.780967328664,27561.332590738846,9075.70231863288,10423.333695332252,10400.669026454572,0.0,0.0,0.0,2019-03-17T21:23:47.584815,9,EyesClosed
-17089.786182616495,-9153.218168403884,3462.553437060528,-2790.056501633704,27461.554403490354,8848.407429266863,10331.937412254503,10240.250556498833,0.0,0.0,0.0,2019-03-17T21:23:47.591783,9,EyesClosed
-16915.889610754206,-8978.583988974571,3527.5970134254712,-2823.94174622795,27595.284890566458,8447.059505827368,10462.02456498439,10249.303013003233,0.0,0.0,0.0,2019-03-17T21:23:47.592167,9,EyesClosed
-16835.37862722619,-8911.19347944182,3659.829933623068,-2644.7031074408424,27695.554816192966,8619.145586388777,10550.403362560673,10395.48342174094,0.03,1.016,0.232,2019-03-17T21:23:47.599130,9,EyesClosed
-16981.290815030436,-9069.868513330044,3609.113825453976,-2582.4311473883567,27576.867053135284,9041.638260082991,10429.234555868454,10407.1063288577,0.0,0.0,0.0,2019-03-17T21:23:47.599790,9,EyesClosed
-17071.18953122968,-9162.784715030755,3463.9392452167567,-2753.891379105017,27451.563173718834,8921.497633635716,10309.876240477115,10253.594547938652,0.0,0.0,0.0,2019-03-17T21:23:47.606875,9,EyesClosed
-16933.88276504073,-9020.828785995101,3490.828393796491,-2838.023345234793,27548.54739291041,8481.794116710917,10407.329846302253,10219.172861477478,0.0,0.0,0.0,2019-03-17T21:23:47.613850,9,EyesClosed
-16812.490440903955,-8901.38106362594,3639.8027705911127,-2667.635997251987,27683.73074337611,8550.838655333358,10532.231394318509,10368.594273161207,0.0,0.0,0.0,2019-03-17T21:23:47.614349,9,EyesClosed
-16919.555296844876,-9015.464367325827,3639.020459535177,-2549.7976004836087,27609.411193062213,9007.954181188845,10457.129532948677,10431.737951247449,0.0,0.0,0.0,2019-03-17T21:23:47.621368,9,EyesClosed
-17043.071036704903,-9146.825569489667,3492.191850208265,-2697.7214452888306,27462.604935479754,9004.690826498369,10317.967571969935,10290.050243145257,0.0,0.0,0.0,2019-03-17T21:23:47.621717,9,EyesClosed
-16941.102378499792,-9028.338972132084,3479.741928546659,-2819.9184322259944,27523.53579086492,8558.102972281335,10383.681700668538,10220.78218707826,0.0,0.0,0.0,2019-03-17T21:23:47.629367,9,EyesClosed
-16798.43119364157,-8875.363633079962,3632.3819914319506,-2677.1131369010377,27683.283708487,8505.039930944435,10529.593888472782,10356.032592777323,0.0,0.0,0.0,2019-03-17T21:23:47.629850,9,EyesClosed
-16881.132648126204,-8978.360471530017,3653.1914655198416,-2541.661565501877,27635.205106163634,8934.752218097714,10474.318024434808,10435.671858271582,0.0,0.0,0.0,2019-03-17T21:23:47.636597,9,EyesClosed
-17033.32567612239,-9138.622479274569,3508.508623660639,-2661.3775088045013,27472.260889084446,9045.236890940296,10317.498185336373,10307.104624164656,0.026000000000000002,1.018,0.232,2019-03-17T21:23:47.636963,9,EyesClosed
-16969.77966663595,-9052.389449165994,3458.1054399139216,-2818.353810114123,27498.47948533052,8623.168900390732,10345.750790327882,10199.16805018998,0.0,0.0,0.0,2019-03-17T21:23:47.643998,9,EyesClosed
-16814.65856011612,-8900.039958958621,3584.348092597496,-2728.7456665927966,27654.002923250548,8448.378258750232,10491.752385109949,10293.112432135635,0.0,0.0,0.0,2019-03-17T21:23:47.644472,9,EyesClosed
-16858.04329610387,-8965.39645974594,3646.7094596278025,-2563.3204058790693,27649.5772778484,8846.663993199349,10478.11782099221,10403.06066311129,0.0,0.0,0.0,2019-03-17T21:23:47.652557,9,EyesClosed
-17026.08371091887,-9146.914976467488,3520.578565666505,-2634.5330637136776,27484.420238068134,9068.415649940449,10317.408778358553,10308.065749176234,0.0,0.0,0.0,2019-03-17T21:23:47.652972,9,EyesClosed
-17005.453050786622,-9119.779958698746,3439.3076228270083,-2812.4529495779216,27464.907165158653,8698.427223971752,10302.522516551318,10177.82213423516,0.0,0.0,0.0,2019-03-17T21:23:47.660109,9,EyesClosed
-16840.787749384373,-8938.95434605531,3548.6747084468257,-2768.7329374233414,27617.301358854933,8423.634877638207,10450.960451479013,10246.866672857604,0.0,0.0,0.0,2019-03-17T21:23:47.660452,9,EyesClosed
-16834.32809523679,-8929.320744195074,3645.9718520607776,-2581.3135601655913,27658.741493075075,8766.443582349251,10486.32091120731,10386.989758847923,0.0,0.0,0.0,2019-03-17T21:23:47.666233,9,EyesClosed
-17004.201353097124,-9119.735255209835,3544.27141478913,-2605.788720344153,27508.850694757784,9073.668309887447,10338.888804780103,10330.484548864908,0.0,0.0,0.0,2019-03-17T21:23:47.673666,9,EyesClosed
-17033.3703796113,-9149.66424103549,3430.7469047006257,-2794.1021673801147,27445.43879573808,8771.763297529615,10283.65764423104,10181.688986025929,0.0,0.0,0.0,2019-03-17T21:23:47.674075,9,EyesClosed
-16863.51947349542,-8966.446991735338,3519.930365077301,-2791.3976063010227,27594.301413810423,8421.600868892774,10428.720465745982,10220.02222776678,0.026000000000000002,1.01,0.232,2019-03-17T21:23:47.681645,9,EyesClosed
-16814.502097904933,-8918.971886512267,3645.927148571867,-2600.714874352798,27679.126284018315,8677.707156861683,10503.107071293243,10371.857627851681,0.0,0.0,0.0,2019-03-17T21:23:47.682105,9,EyesClosed
-16978.161570806693,-9098.478746232837,3570.937045924312,-2577.424356630368,27544.814651586374,9056.993908523787,10367.767258616359,10352.85864506467,0.0,0.0,0.0,2019-03-17T21:23:47.689694,9,EyesClosed
-17045.619135572808,-9164.461095864905,3440.067582138489,-2764.2178850433693,27448.52333647291,8859.002156138678,10278.293225561765,10200.68796881294,0.0,0.0,0.0,2019-03-17T21:23:47.690030,9,EyesClosed
-16898.29878786788,-8992.687939725869,3494.4270246537953,-2815.1128071681032,27568.59690768682,8448.937052361614,10396.310436285787,10199.100994956612,0.0,0.0,0.0,2019-03-17T21:23:47.696281,9,EyesClosed
-16821.364083452714,-8905.963171239278,3632.627860620959,-2632.5661102016106,27680.19916775217,8599.677216968204,10497.876763090702,10351.606947375172,0.0,0.0,0.0,2019-03-17T21:23:47.696672,9,EyesClosed
-16976.46283822809,-9062.760658593257,3586.1138804094653,-2562.202818656304,27564.417131473678,9027.02021920922,10384.86634312467,10371.567055173762,0.0,0.0,0.0,2019-03-17T21:23:47.704291,9,EyesClosed
-17080.689022623184,-9170.943101756942,3446.1025531414216,-2727.87394855904,27436.22987702249,8933.277002963663,10259.741277663861,10221.206870222912,0.0,0.0,0.0,2019-03-17T21:23:47.704704,9,EyesClosed
-16943.248145967504,-9018.660666782936,3478.512582601617,-2809.0107809318047,27538.936142794628,8496.076881417857,10362.67106088055,10189.78031751875,0.0,0.0,0.0,2019-03-17T21:23:47.712337,9,EyesClosed
-16833.255211502936,-8900.844621759012,3626.6822965958477,-2647.8994068979514,27678.299269473468,8533.046666746935,10494.792222355869,10335.647801834084,0.0,0.0,0.0,2019-03-17T21:23:47.712782,9,EyesClosed
-16945.997410535503,-9022.482815084793,3630.1244652419646,-2527.423504283846,27609.925283184682,8986.071823367098,10423.557212776806,10401.786613677337,0.034,1.012,0.228,2019-03-17T21:23:47.719485,9,EyesClosed
-17084.064136035937,-9156.995613216832,3489.1743647067983,-2665.0208431507162,27464.728351203008,9013.966800447322,10284.03762388678,10267.385574267575,0.0,0.0,0.0,2019-03-17T21:23:47.719761,9,EyesClosed
-16992.04200411344,-9044.164007206442,3466.152067917832,-2800.4277110609664,27518.68546231812,8564.719088640106,10342.219214703944,10188.707433784895,0.0,0.0,0.0,2019-03-17T21:23:47.726141,9,EyesClosed
-16846.66625817612,-8899.9505519808,3604.822290518557,-2678.9459799463725,27672.174891492712,8477.524933519951,10484.622178628704,10309.160984654545,0.0,0.0,0.0,2019-03-17T21:23:47.733916,9,EyesClosed
-16937.257878453478,-9010.234059123286,3630.7726658311685,-2542.2203591132593,27629.728928772085,8902.275133404151,10433.816663481792,10395.237552551933,0.0,0.0,0.0,2019-03-17T21:23:47.734391,9,EyesClosed
-17085.449944192165,-9160.460133607405,3503.0324462690887,-2636.9247003703954,27484.10731364576,9055.496341645283,10292.46423154643,10297.403967071054,0.0,0.0,0.0,2019-03-17T21:23:47.741880,9,EyesClosed
-17034.219745900602,-9084.50890594827,3438.3688495598853,-2811.894155966539,27490.321098604334,8635.149435418778,10303.975379940914,10181.510172070286,0.0,0.0,0.0,2019-03-17T21:23:47.742329,9,EyesClosed
-16875.589415501287,-8923.822215059068,3570.4676592907504,-2731.472579416344,27651.81245229393,8444.421999981643,10454.670841058594,10278.98612963988,0.0,0.0,0.0,2019-03-17T21:23:47.749034,9,EyesClosed
-16921.16462244566,-8990.341006558063,3637.1652647453866,-2566.9637402252843,27653.84646103936,8834.41523723784,10444.50079733143,10393.941151373525,0.0,0.0,0.0,2019-03-17T21:23:47.749396,9,EyesClosed
-17088.333319226902,-9163.924653997976,3511.5037574176504,-2632.767275901708,27490.455209071068,9073.55655116517,10284.1270308646,10307.305789864755,0.0,0.0,0.0,2019-03-17T21:23:47.756565,9,EyesClosed
-17070.451923662655,-9140.008287430797,3428.064695365989,-2808.4296355759666,27463.409598280145,8714.520479979574,10264.79277191076,10176.369270845566,0.036000000000000004,1.008,0.234,2019-03-17T21:23:47.757071,9,EyesClosed
-16901.62919779172,-8963.049526578132,3539.018754842133,-2769.0905653346263,27617.547228043943,8422.584345648807,10413.186003349543,10239.334134976165,0.0,0.0,0.0,2019-03-17T21:23:47.764569,9,EyesClosed
-16888.978110430016,-8954.57821542957,3639.4898461687385,-2579.36895839798,27664.39648442227,8743.130712882366,10448.121779933188,10381.96061634548,0.0,0.0,0.0,2019-03-17T21:23:47.764970,9,EyesClosed
-17046.535557095474,-9120.38345579904,3556.967205639745,-2579.1454409534267,27519.892456518708,9079.099783790087,10304.89180146358,10347.404819417576,0.0,0.0,0.0,2019-03-17T21:23:47.771764,9,EyesClosed
-17081.314871467934,-9150.513607324792,3440.3358030719523,-2769.157620567992,27443.404786992647,8788.951789015746,10236.294297730243,10196.217619921877,0.0,0.0,0.0,2019-03-17T21:23:47.772269,9,EyesClosed
-16915.174354931638,-8966.402288246429,3529.027525070611,-2771.571608969165,27590.523968997477,8418.158700246657,10379.658386666582,10232.047466283735,0.0,0.0,0.0,2019-03-17T21:23:47.779220,9,EyesClosed
-16864.10061885126,-8915.753235310702,3654.599625420526,-2584.4651561337896,27675.147673505267,8645.90062450178,10451.653355557128,10385.805116391793,0.0,0.0,0.0,2019-03-17T21:23:47.779580,9,EyesClosed
-17018.32765559288,-9086.56526643816,3589.511345566672,-2547.9871091827285,27543.29473296341,9038.844292026079,10318.101682436667,10381.357119245187,0.0,0.0,0.0,2019-03-17T21:23:47.786271,9,EyesClosed
-17099.129211798812,-9167.389174388549,3447.510713042106,-2733.104256761582,27427.065661795816,8848.586243222504,10207.661713082995,10222.525623145775,0.0,0.0,0.0,2019-03-17T21:23:47.794114,9,EyesClosed
-16948.366695447767,-8997.292399083663,3500.1267194898987,-2780.9146381514834,27549.08383477734,8429.088703285302,10323.063769705746,10220.916297544993,0.0,0.0,0.0,2019-03-17T21:23:47.794447,9,EyesClosed
-16858.84795890426,-8906.007874728188,3637.3217269565735,-2605.1852232438596,27663.725932088608,8556.292480980454,10425.501814544417,10375.43390696453,0.034,1.008,0.234,2019-03-17T21:23:47.801301,9,EyesClosed
-16987.526951733464,-9046.376829907516,3610.5443370991156,-2517.4099227678685,27567.255803019503,8998.052358395144,10324.918964495537,10417.857517940703,0.0,0.0,0.0,2019-03-17T21:23:47.801684,9,EyesClosed
-17098.2351420206,-9160.102505696119,3474.310454644019,-2678.610703779543,27440.499060213457,8934.372238441973,10201.40322463551,10280.930731407492,0.0,0.0,0.0,2019-03-17T21:23:47.808870,9,EyesClosed
-16984.26359704299,-9046.019201996232,3482.8935245148573,-2788.424824288467,27521.97116875305,8482.665834744672,10281.757745952338,10229.298201715732,0.0,0.0,0.0,2019-03-17T21:23:47.809322,9,EyesClosed
-16853.640002446176,-8913.965095754278,3632.7172675987804,-2630.912081111918,27673.940679304684,8496.859192473792,10420.182099364054,10375.411555220075,0.0,0.0,0.0,2019-03-17T21:23:47.816880,9,EyesClosed
-16958.4026287082,-9027.154329675952,3638.595776390526,-2507.5080999741676,27608.18184711717,8938.082628021553,10348.745924084893,10445.216053154,0.0,0.0,0.0,2019-03-17T21:23:47.817363,9,EyesClosed
-17098.2351420206,-9165.511627854303,3491.811870552525,-2646.133619085982,27452.837223152786,8979.388651774962,10199.615085079085,10310.211516643943,0.0,0.0,0.0,2019-03-17T21:23:47.825505,9,EyesClosed
-16999.753355950517,-9062.98417603781,3466.822620251491,-2784.4685655198773,27502.145171421194,8537.159387726711,10251.627594426584,10225.1631289915,0.0,0.0,0.0,2019-03-17T21:23:47.825973,9,EyesClosed
-16828.42723470059,-8897.536563579628,3619.373276158962,-2651.587444733077,27669.805606580452,8443.773799392438,10410.213221336988,10355.987889288413,0.0,0.0,0.0,2019-03-17T21:23:47.831787,9,EyesClosed
-16896.756517500464,-8981.288550053663,3656.4771719547716,-2502.6354196829107,27636.36739687531,8862.42197304034,10370.38241271763,10451.675707301583,0.0,0.0,0.0,2019-03-17T21:23:47.832172,9,EyesClosed
-17066.138036982782,-9170.09373546764,3503.0995015024546,-2616.3610954715127,27457.084054599294,9004.73552998728,10198.16222168949,10328.919926753037,0.04,1.008,0.24,2019-03-17T21:23:47.839443,9,EyesClosed
-17001.27327457348,-9110.436929516427,3446.1472566303323,-2782.054577118704,27465.19773783657,8598.336112300887,10211.59562010713,10218.97169577738,0.0,0.0,0.0,2019-03-17T21:23:47.839867,9,EyesClosed
-16829.90244983464,-8942.0612385346,3579.788336728613,-2706.6621430709533,27627.00201594854,8385.94983648656,10364.81682834826,10313.94425796798,0.0,0.0,0.0,2019-03-17T21:23:47.846567,9,EyesClosed
-16839.89367960616,-8960.300262010129,3668.055375582621,-2520.874443158441,27649.5772778484,8772.299739396542,10378.429040721541,10449.664050300606,0.0,0.0,0.0,2019-03-17T21:23:47.847116,9,EyesClosed
-17008.157611865714,-9141.058819420197,3546.3501270234738,-2575.5915135850328,27483.81674096784,9026.170852919919,10213.651980597018,10369.711860383972,0.0,0.0,0.0,2019-03-17T21:23:47.854656,9,EyesClosed
-17009.90104793323,-9137.504892051804,3446.8848641973573,-2765.4695827328665,27438.800327634854,8674.689671360216,10172.413012076977,10227.30889645921,0.0,0.0,0.0,2019-03-17T21:23:47.861702,9,EyesClosed
-16837.882022605183,-8953.460628206805,3554.5532172385715,-2732.25489047228,27596.89421616724,8368.26960662241,10322.61673481664,10289.714966978427,0.0,0.0,0.0,2019-03-17T21:23:47.862027,9,EyesClosed
-16812.579847881778,-8931.019476773678,3668.3235965160843,-2533.436123542324,27659.90378378675,8676.611921383372,10374.428078464041,10439.516358317895,0.0,0.0,0.0,2019-03-17T21:23:47.869089,9,EyesClosed
-16986.83404765535,-9119.198813342908,3574.267455848152,-2539.985184667729,27506.54846507889,9016.02316093721,10226.414826680997,10396.042215352323,0.0,0.0,0.0,2019-03-17T21:23:47.869593,9,EyesClosed
-17033.54919356694,-9167.031546477265,3451.154047388321,-2736.836998085618,27423.33292047178,8749.769180985591,10152.922290911949,10241.189329765955,0.0,0.0,0.0,2019-03-17T21:23:47.877128,9,EyesClosed
-16863.653583962154,-8983.724890199292,3535.062496073544,-2753.8466756161065,27568.328686753357,8373.209342147034,10294.56529552523,10271.498295247353,0.032,1.006,0.246,2019-03-17T21:23:47.877464,9,EyesClosed
-16806.18724896756,-8923.129310980954,3660.142858045442,-2569.713004793287,27660.350818675855,8586.377929017297,10375.590369175718,10424.093654643733,0.0,0.0,0.0,2019-03-17T21:23:47.885171,9,EyesClosed
-16964.54935843341,-9095.014225842266,3588.8407932330124,-2532.0503153860946,27525.860372288273,8988.39640479045,10241.725771632884,10418.103387129711,0.0,0.0,0.0,2019-03-17T21:23:47.885654,9,EyesClosed
-17052.168196698214,-9185.047052508242,3442.0792391394666,-2716.608669353565,27408.84899006474,8826.055684811556,10131.554023212675,10260.702402675439,0.0,0.0,0.0,2019-03-17T21:23:47.893211,9,EyesClosed
-16906.993616460994,-9023.466291840827,3482.6476553258485,-2782.7921846857294,27519.803049540886,8396.52221161392,10241.904585588525,10242.463379199908,0.0,0.0,0.0,2019-03-17T21:23:47.893701,9,EyesClosed
-16807.550705379334,-8922.726979580759,3621.6084506044926,-2609.2532407347253,27642.33531264488,8498.1555936522,10353.126865998134,10389.515505971374,0.0,0.0,0.0,2019-03-17T21:23:47.899746,9,EyesClosed
-16929.92650627214,-9066.024013283732,3603.0565027065877,-2508.1786523078267,27554.761177868986,8943.938785068845,10262.512893976318,10434.531919304362,0.0,0.0,0.0,2019-03-17T21:23:47.900073,9,EyesClosed
-17053.017562987516,-9198.703968370435,3451.1987508772318,-2675.4367560668893,27408.6701761091,8889.75815650918,10124.535575453709,10282.093022119168,0.0,0.0,0.0,2019-03-17T21:23:47.906858,9,EyesClosed
-16933.614544107266,-9070.784934852712,3453.2104078782095,-2789.251838833313,27483.660278756655,8436.420075466642,10197.625779822562,10220.201041722423,0.0,0.0,0.0,2019-03-17T21:23:47.907299,9,EyesClosed
-16792.41857438309,-8923.196366214319,3610.2090609322863,-2634.8236363915967,27638.602571320844,8424.104264271768,10340.989868758901,10361.15114225759,0.0,0.0,0.0,2019-03-17T21:23:47.913397,9,EyesClosed
-16892.91201745415,-9033.681039056903,3626.6822965958477,-2501.137852804405,27582.74556192703,8870.379194066429,10281.377766296599,10440.768056007393,0.026000000000000002,1.008,0.23800000000000002,2019-03-17T21:23:47.921242,9,EyesClosed
-17047.2731646625,-9195.306503213227,3482.8711727704017,-2631.783799145675,27426.350405973248,8942.284755979152,10130.52584296773,10310.591496299685,0.0,0.0,0.0,2019-03-17T21:23:47.921624,9,EyesClosed
-16962.2024252656,-9103.619647457559,3449.0753351539774,-2782.5910189856318,27464.661295969643,8506.693960034128,10172.547122543709,10216.40124516502,0.0,0.0,0.0,2019-03-17T21:23:47.929390,9,EyesClosed
-16797.537123863356,-8932.449988418817,3596.1274619254427,-2668.284197841191,27631.628827050787,8386.329816142299,10327.690580807994,10337.771217557338,0.0,0.0,0.0,2019-03-17T21:23:47.929814,9,EyesClosed
-16856.52337748091,-8999.616980507015,3646.441238694339,-2506.166995306849,27615.42381232069,8805.782652590591,10304.668284019028,10447.07124794379,0.0,0.0,0.0,2019-03-17T21:23:47.936468,9,EyesClosed
-17029.548231309444,-9181.694290839945,3503.546536391561,-2605.9675342997953,27444.142394559673,8976.706442440325,10138.751284927284,10335.826615789725,0.0,0.0,0.0,2019-03-17T21:23:47.936853,9,EyesClosed
-16986.856399399807,-9133.660392005491,3429.4728552666734,-2777.673635205464,27438.33094100129,8582.153449315245,10141.567604728652,10215.171899219979,0.0,0.0,0.0,2019-03-17T21:23:47.943977,9,EyesClosed
-16815.172650238594,-8951.471322950283,3555.6261009724262,-2706.2151081818474,27604.046774392937,8354.41152506012,10301.449632817465,10309.585667799196,0.0,0.0,0.0,2019-03-17T21:23:47.944397,9,EyesClosed
-16837.65850516063,-8981.556770987127,3633.141950743431,-2531.268004330159,27622.08463216837,8714.542831724028,10309.764481754837,10436.342410605243,0.0,0.0,0.0,2019-03-17T21:23:47.951966,9,EyesClosed
-17004.73779496405,-9161.220092918884,3520.869138344424,-2571.0988129495163,27462.604935479754,8997.270047339207,10154.48691302382,10368.52721792784,0.0,0.0,0.0,2019-03-17T21:23:47.952337,9,EyesClosed
-17011.912704934206,-9167.322119155184,3416.642953949327,-2762.5862076981316,27414.23576047847,8666.352470678386,10111.884488092004,10226.59364063664,0.028,1.012,0.23800000000000002,2019-03-17T21:23:47.960074,9,EyesClosed
-16844.967525597516,-8990.341006558063,3515.571774908516,-2744.816570856163,27567.479320464055,8339.033524874869,10256.522626462296,10275.70042320495,0.0,0.0,0.0,2019-03-17T21:23:47.960406,9,EyesClosed
-16812.579847881778,-8959.361488743007,3634.572462388571,-2545.528417292645,27640.90480099974,8633.651868540272,10317.922868481026,10432.408503581108,0.0,0.0,0.0,2019-03-17T21:23:47.966678,9,EyesClosed
-16974.98762309404,-9136.364953084583,3549.635833458404,-2535.6265944989436,27497.25013938548,8996.8230124501,10176.883360968037,10403.708863700493,0.0,0.0,0.0,2019-03-17T21:23:47.967165,9,EyesClosed
-17036.544327323954,-9198.569857903703,3409.1998230457098,-2737.1946259969027,27401.09293473875,8748.15985538481,10090.203295970357,10240.742294876849,0.0,0.0,0.0,2019-03-17T21:23:47.973690,9,EyesClosed
-16880.417392303632,-9030.752960533257,3471.5388383315612,-2773.0021206143047,27533.97405552555,8350.544673269353,10219.463434155397,10252.052277571234,0.0,0.0,0.0,2019-03-17T21:23:47.981594,9,EyesClosed
-16808.981217024473,-8963.228340533775,3598.4967468377054,-2593.6070196160103,27630.064204938913,8532.912556280204,10308.043397431778,10402.077186355256,0.0,0.0,0.0,2019-03-17T21:23:47.981937,9,EyesClosed
-16958.53673917493,-9119.534089509736,3549.6581852028594,-2536.945347421807,27511.73406979252,8948.520892682183,10191.63551230854,10412.895430671624,0.0,0.0,0.0,2019-03-17T21:23:47.989646,9,EyesClosed
-17065.04280150447,-9219.625201180603,3406.7858346445364,-2713.0770937296265,27394.14154221315,8814.432777694796,10081.62022609952,10257.46139972942,0.0,0.0,0.0,2019-03-17T21:23:47.990041,9,EyesClosed
-16928.495994627,-9066.560455150659,3442.1462943728325,-2787.6201614880756,27503.665090044153,8385.055766708347,10191.903733242003,10229.365256949099,0.0,0.0,0.0,2019-03-17T21:23:47.996198,9,EyesClosed
-16813.518621148898,-8945.190482758342,3593.892287479912,-2610.013200046206,27641.016559722015,8474.932131163136,10318.749883025872,10383.704052412993,0.036000000000000004,1.014,0.234,2019-03-17T21:23:47.996527,9,EyesClosed
-16946.01976227996,-9084.352443737083,3574.580380270527,-2512.045504098595,27549.06148303288,8913.406302142896,10221.49744290083,10425.457111055508,0.0,0.0,0.0,2019-03-17T21:23:48.004239,9,EyesClosed
-17082.499513924064,-9225.101378572152,3422.9237941412684,-2677.8283927236075,27398.455428893023,8885.243104129207,10074.534723107186,10269.97837662439,0.0,0.0,0.0,2019-03-17T21:23:48.004654,9,EyesClosed
-16974.674698671664,-9110.213412071875,3414.385427759341,-2809.1672431429915,27464.95186864756,8435.794226621894,10140.71823843935,10195.815288521682,0.0,0.0,0.0,2019-03-17T21:23:48.012276,9,EyesClosed
-16834.99864757045,-8958.936805598356,3558.732993451714,-2669.558247275144,27618.061318166416,8399.226772693011,10283.009443641835,10331.736246554405,0.0,0.0,0.0,2019-03-17T21:23:48.012660,9,EyesClosed
-16921.276381167936,-9052.41180091045,3579.7212814952472,-2529.3904577959133,27571.07795132136,8840.9866501077,10233.83560584016,10420.182099364054,0.0,0.0,0.0,2019-03-17T21:23:48.019375,9,EyesClosed
-17070.630737618296,-9221.234526781383,3436.9830414036564,-2647.720592942309,27416.470934924,8937.635593132449,10083.386013911488,10296.845173459671,0.0,0.0,0.0,2019-03-17T21:23:48.019779,9,EyesClosed
-17005.117774619794,-9155.296880638229,3386.423395445752,-2803.0205134177822,27442.33190325879,8503.63177104375,10111.012770058247,10193.803631520705,0.0,0.0,0.0,2019-03-17T21:23:48.026957,9,EyesClosed
-16844.18521454158,-8981.959102387322,3531.597975682971,-2689.6971690293753,27613.61332101981,8360.737068740973,10270.380708024586,10313.22900214541,0.0,0.0,0.0,2019-03-17T21:23:48.027368,9,EyesClosed
-16893.895494210185,-9033.703390801358,3590.1371944114203,-2524.8307019270305,27603.622091248286,8769.192846917254,10252.879292116082,10425.725331988971,0.0,0.0,0.0,2019-03-17T21:23:48.034110,9,EyesClosed
-17059.90190027975,-9220.742788403368,3456.362003846408,-2611.1531390134264,27434.106461299238,8965.597625446037,10088.817487814127,10321.454444104964,0.038,1.014,0.23800000000000002,2019-03-17T21:23:48.041811,9,EyesClosed
-17024.675551018187,-9181.336662928661,3389.8208606029584,-2778.7912224282295,27431.91599034262,8594.89394365477,10091.90202854896,10206.633532838052,0.0,0.0,0.0,2019-03-17T21:23:48.042210,9,EyesClosed
-16857.81977865932,-9002.522707286204,3511.414350439829,-2724.096503746093,27594.301413810423,8341.760437698416,10244.899719345536,10285.199914598456,0.0,0.0,0.0,2019-03-17T21:23:48.049047,9,EyesClosed
-16871.454342777055,-9016.26903012622,3595.479261336239,-2548.6129580274774,27618.843629222352,8684.926770320746,10263.898702132548,10412.873078927169,0.0,0.0,0.0,2019-03-17T21:23:48.049394,9,EyesClosed
-17047.09435070686,-9198.905134070532,3486.35804490543,-2583.548734611122,27461.48734825699,8984.440146021861,10112.510336936753,10349.058848507268,0.0,0.0,0.0,2019-03-17T21:23:48.058038,9,EyesClosed
-17061.89120553627,-9219.334628502684,3383.025930288545,-2769.247027545813,27408.781934831375,8676.790735339015,10066.845723014561,10208.935762516949,0.0,0.0,0.0,2019-03-17T21:23:48.058443,9,EyesClosed
-16900.802183246873,-9051.36126892105,3466.2638266401086,-2768.7552891677965,27550.02260804446,8324.035504345358,10205.53829735974,10244.452684456432,0.0,0.0,0.0,2019-03-17T21:23:48.065930,9,EyesClosed
-16855.4281420026,-9004.489660798272,3590.561877556071,-2572.84224901703,27628.678396782685,8595.117461099322,10277.488562761375,10400.445509010018,0.0,0.0,0.0,2019-03-17T21:23:48.066434,9,EyesClosed
-17011.488021789555,-9169.400831389527,3518.0081150541446,-2549.127048149949,27498.211264397058,8973.644253449947,10145.859139664071,10384.24049427992,0.0,0.0,0.0,2019-03-17T21:23:48.072596,9,EyesClosed
-17080.912540067737,-9237.283079300294,3378.510877908573,-2744.9506813228945,27395.259129435915,8748.15985538481,10049.076086172592,10219.798710322228,0.0,0.0,0.0,2019-03-17T21:23:48.073105,9,EyesClosed
-16920.829346278828,-9067.231007484319,3438.6594222378044,-2782.83688817464,27523.714604820565,8344.643812733151,10175.698718511907,10223.598506879629,0.032,1.016,0.234,2019-03-17T21:23:48.079195,9,EyesClosed
-16835.266868503913,-8984.753070444236,3580.704758251281,-2592.6011911155215,27636.255638153034,8518.652143317717,10276.862713916626,10379.233703521932,0.0,0.0,0.0,2019-03-17T21:23:48.079740,9,EyesClosed
-16976.507541716997,-9136.990801929333,3541.2092257987533,-2525.5459577496003,27524.072232731847,8946.419828703383,10164.321680584155,10397.226857808455,0.0,0.0,0.0,2019-03-17T21:23:48.087235,9,EyesClosed
-17078.118572010826,-9240.389971779583,3399.990904330123,-2699.7331022898084,27397.829580048274,8834.951679104768,10046.259766371222,10244.966774578903,0.0,0.0,0.0,2019-03-17T21:23:48.087641,9,EyesClosed
-16949.573689648354,-9103.731406179835,3418.9451836282237,-2799.1760133714693,27487.370668336236,8384.94400798607,10136.538462226208,10199.68214031245,0.0,0.0,0.0,2019-03-17T21:23:48.094271,9,EyesClosed
-16830.774167868396,-8984.596608233049,3564.6562057323704,-2643.7866859181745,27621.525838556987,8432.173244020134,10255.449742728442,10338.464121635452,0.0,0.0,0.0,2019-03-17T21:23:48.094593,9,EyesClosed
-16947.58438439183,-9099.70809217788,3561.7281272087253,-2536.3418503215134,27544.837003330827,8880.325720349041,10174.49172431132,10393.53881997333,0.0,0.0,0.0,2019-03-17T21:23:48.101363,9,EyesClosed
-17076.777467343505,-9241.686372957989,3414.5418899705282,-2687.774919006219,27398.164856215106,8881.152734893887,10033.653382498429,10248.140722291557,0.0,0.0,0.0,2019-03-17T21:23:48.108785,9,EyesClosed
-16976.820466139372,-9141.23763337584,3401.667285164271,-2813.0340949337597,27462.426121524113,8437.537662689409,10099.099290263568,10176.123401656558,0.0,0.0,0.0,2019-03-17T21:23:48.109184,9,EyesClosed
-16836.026827815393,-8991.100965869542,3548.9876328692003,-2677.381357834501,27619.201257133634,8378.171429416112,10246.151417035035,10309.362150354642,0.0,0.0,0.0,2019-03-17T21:23:48.116834,9,EyesClosed
-16922.930410257628,-9085.402975726483,3576.122650637943,-2536.1853881103266,27575.324782767868,8813.918687572323,10198.676311811962,10399.730253187448,0.032,1.01,0.23800000000000002,2019-03-17T21:23:48.117177,9,EyesClosed
-17067.166217227725,-9245.217948581929,3436.3571925589076,-2646.4018400194454,27419.220199492003,8933.299354708119,10047.734981505273,10283.545885508764,0.0,0.0,0.0,2019-03-17T21:23:48.124883,9,EyesClosed
-17011.84564970084,-9190.858506066621,3374.353453439886,-2814.3751996010783,27429.56905717481,8498.021483185468,10064.767010780217,10168.300291097199,0.0,0.0,0.0,2019-03-17T21:23:48.125175,9,EyesClosed
-16854.042333846373,-9025.58970756408,3498.5620973780274,-2728.2986317036907,27582.92437588267,8316.234745530457,10209.53925961724,10265.619786455607,0.0,0.0,0.0,2019-03-17T21:23:48.132035,9,EyesClosed
-16879.67978473661,-9058.51382714675,3576.502630293683,-2545.260196359181,27595.642518477744,8732.468930777184,10214.59075386414,10398.456203753496,0.0,0.0,0.0,2019-03-17T21:23:48.132350,9,EyesClosed
-17049.262469919024,-9240.92641364651,3455.512637557106,-2613.23185124777,27434.32997874379,8960.322613754584,10056.966251965316,10312.446691089475,0.0,0.0,0.0,2019-03-17T21:23:48.139469,9,EyesClosed
-17030.33054236538,-9218.686427913479,3368.9890347706123,-2796.2702865922793,27408.24549296445,8587.339054028876,10036.961440677815,10179.677329024951,0.0,0.0,0.0,2019-03-17T21:23:48.139861,9,EyesClosed
-16857.640964703674,-9033.949259990366,3480.345425646952,-2753.5337511937323,27561.332590738846,8305.371797725176,10181.934855214937,10245.50321644583,0.0,0.0,0.0,2019-03-17T21:23:48.147519,9,EyesClosed
-16843.80523488584,-9020.180585405897,3590.0254356891437,-2555.8996267199072,27613.479210553076,8651.890892015803,10223.64321036854,10393.96350311798,0.0,0.0,0.0,2019-03-17T21:23:48.147909,9,EyesClosed
-17014.684321246663,-9210.39393072056,3487.1627077058206,-2574.451574617812,27458.045179610872,8971.811410404613,10074.445316129366,10341.10162748118,0.0,0.0,0.0,2019-03-17T21:23:48.154643,9,EyesClosed
-17032.856289488827,-9232.745675175867,3373.0123487725677,-2762.407393742489,27391.504036367423,8675.986072538624,10014.274420055679,10189.10976518509,0.034,1.012,0.24,2019-03-17T21:23:48.155088,9,EyesClosed
-16865.01704037393,-9043.247585683774,3457.8372189804577,-2764.731975165841,27535.851602059796,8315.497137963432,10153.749305456795,10217.921163787982,0.0,0.0,0.0,2019-03-17T21:23:48.161225,9,EyesClosed
-16815.016188027406,-9014.54794580316,3581.2635518626635,-2573.17752518386,27618.486001311067,8562.50626593903,10225.431349924964,10367.364927216164,0.0,0.0,0.0,2019-03-17T21:23:48.169110,9,EyesClosed
-16964.839931111328,-9182.566008873702,3517.181100509298,-2538.7334869782317,27492.645680027686,8953.594738673537,10099.926304808416,10360.122962012645,0.0,0.0,0.0,2019-03-17T21:23:48.169521,9,EyesClosed
-17037.304286635434,-9251.610547496146,3387.6974448797046,-2728.320983448146,27395.66146083611,8758.464009578707,10011.525155487676,10204.487765370342,0.0,0.0,0.0,2019-03-17T21:23:48.177146,9,EyesClosed
-16890.319215097334,-9093.22608628584,3439.3076228270083,-2790.5929435006315,27514.639796571708,8335.256080061923,10131.017581345748,10190.249704152311,0.0,0.0,0.0,2019-03-17T21:23:48.177624,9,EyesClosed
-16799.638187842153,-8998.633503750982,3579.989502428711,-2613.902403581429,27630.80181250594,8480.363605065777,10236.249594241333,10339.559357113762,0.0,0.0,0.0,2019-03-17T21:23:48.183720,9,EyesClosed
-16938.956611032085,-9151.832360247656,3538.482312975206,-2546.511894048678,27519.132497207225,8908.287752662629,10123.932078353415,10358.200711989488,0.0,0.0,0.0,2019-03-17T21:23:48.184193,9,EyesClosed
-17047.31786815141,-9262.428791812516,3389.127956524844,-2718.128587976526,27387.011335731906,8817.427911451807,9998.471736725776,10203.884268270049,0.0,0.0,0.0,2019-03-17T21:23:48.193157,9,EyesClosed
-16917.923619499637,-9120.964601154876,3408.2610497785868,-2809.994257687838,27481.894490944684,8373.969301458514,10091.52204889322,10159.96309041537,0.0,0.0,0.0,2019-03-17T21:23:48.193523,9,EyesClosed
-16793.13383020566,-8982.383785531973,3556.341356794996,-2650.648671465954,27621.771707745997,8404.434729151099,10221.87742255657,10301.89666770657,0.04,1.01,0.23600000000000002,2019-03-17T21:23:48.199783,9,EyesClosed
-16896.53300005591,-9108.827603915644,3559.3588422964626,-2528.362277550969,27552.79422435692,8858.353955549474,10152.855235678582,10373.019918563357,0.0,0.0,0.0,2019-03-17T21:23:48.200140,9,EyesClosed
-17038.153652924735,-9259.187788866495,3408.5963259454165,-2674.6544450109536,27398.94716727104,8891.590999554515,10004.394949006433,10236.853091341627,0.0,0.0,0.0,2019-03-17T21:23:48.206996,9,EyesClosed
-16940.02949476594,-9153.374630615072,3386.088119278922,-2809.8824989655614,27453.507775486443,8457.229549554533,10061.03426945618,10159.717221226361,0.0,0.0,0.0,2019-03-17T21:23:48.207426,9,EyesClosed
-16785.377774879667,-8995.437204293872,3534.771923395625,-2680.0188636802272,27615.42381232069,8378.551409071852,10210.813309051193,10294.207667613944,0.0,0.0,0.0,2019-03-17T21:23:48.214431,9,EyesClosed
-16861.820740916817,-9080.530295435226,3573.663958747859,-2528.0270013841396,27582.589099715842,8811.571754404516,10173.620006277562,10395.751642674404,0.0,0.0,0.0,2019-03-17T21:23:48.214823,9,EyesClosed
-17024.586144040364,-9248.950689905965,3429.0481721220226,-2637.61760444851,27414.258112222924,8954.265291007196,10012.173356076879,10279.835495929181,0.0,0.0,0.0,2019-03-17T21:23:48.221534,9,EyesClosed
-16969.287928257934,-9184.53296238577,3371.0453952605008,-2797.1420046260364,27427.602103662743,8548.938757054659,10031.820539453094,10174.53642780023,0.0,0.0,0.0,2019-03-17T21:23:48.229345,9,EyesClosed
-16815.016188027406,-9019.01829469422,3497.6233241109044,-2716.809835053663,27581.98560261555,8347.728353467985,10181.06313718118,10266.804428911737,0.0,0.0,0.0,2019-03-17T21:23:48.229790,9,EyesClosed
-16843.80523488584,-9052.8364840551,3575.9661884267557,-2537.682954988832,27595.70957371111,8736.87222443488,10190.093241941124,10394.96933161847,0.0,0.0,0.0,2019-03-17T21:23:48.238050,9,EyesClosed
-17000.759184451006,-9221.011009336831,3465.7273847731813,-2587.974380013273,27443.360083503736,8992.978512403788,10041.990583180259,10322.840252261192,0.0,0.0,0.0,2019-03-17T21:23:48.238424,9,EyesClosed
-16997.98756813855,-9218.127634302096,3365.9939010136013,-2782.054577118704,27401.808190561318,8625.918164958735,10008.284152541657,10174.424669077955,0.04,1.01,0.232,2019-03-17T21:23:48.244250,9,EyesClosed
-16819.598295640742,-9032.474044856315,3480.457184369229,-2742.9166725774617,27562.74075063953,8326.449492746531,10163.338203828122,10235.73550411886,0.0,0.0,0.0,2019-03-17T21:23:48.244581,9,EyesClosed
-16803.817964055295,-9019.532384816694,3586.4491565762946,-2552.9938999407173,27615.2673501095,8642.391400622297,10207.102919471612,10376.171514531556,0.0,0.0,0.0,2019-03-17T21:23:48.252043,9,EyesClosed
-16968.93030034665,-9195.507668913326,3491.0742629854994,-2566.069670447072,27463.901336658164,8973.39838426094,10059.447295599854,10325.388351129097,0.0,0.0,0.0,2019-03-17T21:23:48.252428,9,EyesClosed
-17003.866076930295,-9231.695143186467,3372.1853342277213,-2763.480277476344,27389.537082855357,8694.895648347814,9989.93337034385,10166.333337585133,0.0,0.0,0.0,2019-03-17T21:23:48.260049,9,EyesClosed
-16830.058912045828,-9041.615908338537,3462.844009738447,-2763.7932018987185,27544.635837630733,8334.74198993945,10140.740590183806,10199.413919378987,0.0,0.0,0.0,2019-03-17T21:23:48.260394,9,EyesClosed
-16782.5614550783,-8992.35266355904,3591.2547816341857,-2576.3514728965133,27634.243981152056,8562.036879305468,10222.92795454597,10350.444656663496,0.0,0.0,0.0,2019-03-17T21:23:48.266665,9,EyesClosed
-16952.881747827738,-9175.838133792655,3520.60091741096,-2547.9200539493627,27497.741877763496,8957.193369530842,10090.829144815105,10338.084141979713,0.0,0.0,0.0,2019-03-17T21:23:48.267140,9,EyesClosed
-17026.150766152237,-9249.621242239624,3382.8918198218134,-2733.998326539794,27389.358268899712,8780.078146466989,9987.295864498123,10180.34788135861,0.0,0.0,0.0,2019-03-17T21:23:48.274737,9,EyesClosed
-16877.10933412425,-9086.56526643816,3429.294041311031,-2789.5871150001426,27508.15779067967,8361.742897241462,10106.274200233722,10170.937796942926,0.0,0.0,0.0,2019-03-17T21:23:48.275134,9,EyesClosed
-16780.57214982178,-8989.782212946679,3570.668824990848,-2611.063732035605,27628.924265971695,8488.164363880678,10218.368198677088,10323.689618550494,0.034,1.004,0.23800000000000002,2019-03-17T21:23:48.281762,9,EyesClosed
-16909.00527346197,-9133.52628153876,3540.024583342622,-2526.998821139195,27529.436651401124,8928.493729650227,10117.025389316725,10361.95580505798,0.0,0.0,0.0,2019-03-17T21:23:48.289586,9,EyesClosed
-17023.066225417402,-9253.935128919498,3391.6984071372044,-2692.58054406411,27390.74407705594,8869.574531266038,9985.664187152886,10216.3118381872,0.0,0.0,0.0,2019-03-17T21:23:48.289983,9,EyesClosed
-16902.702081525575,-9122.126891866552,3401.7566921420926,-2800.383007572056,27473.66904898513,8427.009991050958,10069.840856771572,10167.048593407702,0.0,0.0,0.0,2019-03-17T21:23:48.296278,9,EyesClosed
-16778.672251543077,-8994.699596726847,3551.468676503739,-2647.362965031024,27620.22943737858,8435.883633599715,10206.901753771515,10311.999656200369,0.0,0.0,0.0,2019-03-17T21:23:48.296719,9,EyesClosed
-16889.335738341302,-9114.259077818284,3555.089659105499,-2528.3399258065137,27551.989561556526,8881.957397694277,10135.912613381459,10381.424174478552,0.0,0.0,0.0,2019-03-17T21:23:48.304766,9,EyesClosed
-17024.94377195165,-9260.350079578171,3411.546756213517,-2657.912988413929,27402.344632428245,8944.519930424683,9994.44842272382,10258.914263119015,0.0,0.0,0.0,2019-03-17T21:23:48.305225,9,EyesClosed
-16946.757369846986,-9171.032508734765,3375.024005773545,-2809.4578158209106,27442.220144536514,8502.938866965636,10040.202443623835,10171.29542485421,0.0,0.0,0.0,2019-03-17T21:23:48.312246,9,EyesClosed
-16792.70914706101,-9012.826861480102,3518.7233708767144,-2692.7593580197527,27600.60460574682,8394.421147635121,10192.864858253582,10289.446746044963,0.0,0.0,0.0,2019-03-17T21:23:48.312539,9,EyesClosed
-16859.652621704652,-9093.382548497028,3572.926351180834,-2528.563443251067,27581.65032644872,8824.535766188594,10169.86491320907,10397.785651419837,0.0,0.0,0.0,2019-03-17T21:23:48.319518,9,EyesClosed
-17011.331559578368,-9250.69412597348,3448.6283002648715,-2610.2814209796693,27428.451469952044,9000.511050285228,10023.483338771264,10299.639141516584,0.032,1.008,0.24,2019-03-17T21:23:48.320003,9,EyesClosed
-16962.87297759926,-9194.43478517947,3382.4671366771627,-2779.93116139545,27427.177420518092,8596.100937855355,10029.071274885091,10174.91640745597,0.0,0.0,0.0,2019-03-17T21:23:48.326950,9,EyesClosed
-16791.144524949137,-9016.514899315227,3511.995495795667,-2703.2423261692916,27587.193559073636,8373.23169389149,10186.53931457273,10258.243710785355,0.0,0.0,0.0,2019-03-17T21:23:48.327287,9,EyesClosed
-16809.048272257838,-9041.884129272,3595.076929936043,-2523.131969348427,27604.583216259864,8745.54470128354,10201.358521146598,10380.016014577868,0.0,0.0,0.0,2019-03-17T21:23:48.334942,9,EyesClosed
-16967.656250912696,-9214.596058678158,3483.094690214955,-2567.7684030256755,27447.830432394796,9016.02316093721,10047.17618789389,10303.103661907156,0.0,0.0,0.0,2019-03-17T21:23:48.335447,9,EyesClosed
-16966.628070667753,-9206.884706841076,3385.9540088121903,-2753.7796203827406,27407.641995864153,8675.896665560802,10010.094643842536,10159.851331693093,0.0,0.0,0.0,2019-03-17T21:23:48.342088,9,EyesClosed
-16806.321359434292,-9020.78408250619,3483.765242548614,-2734.355954451079,27557.845718603818,8352.64573724815,10152.832883934127,10206.678236326961,0.0,0.0,0.0,2019-03-17T21:23:48.342404,9,EyesClosed
-16775.677117786065,-9003.372073575507,3600.2625346496743,-2541.3709928239577,27624.69978626964,8656.540054862506,10210.746253817828,10354.535025898818,0.0,0.0,0.0,2019-03-17T21:23:48.348639,9,EyesClosed
-16951.093608271316,-9206.594134163159,3506.452263170751,-2552.166885395871,27474.80898795235,9001.919210185912,10061.883635745482,10308.80335674326,0.0,0.0,0.0,2019-03-17T21:23:48.356481,9,EyesClosed
-17010.07986188887,-9264.21693136894,3372.5206103945507,-2756.5288849507433,27386.31843165379,8739.0626953915,9976.79054460413,10144.875662908038,0.0,0.0,0.0,2019-03-17T21:23:48.356867,9,EyesClosed
-16853.125912323703,-9090.052138573186,3438.3688495598853,-2788.5589347551986,27519.937160007616,8348.108333123724,10103.52493566572,10156.923253169449,0.036000000000000004,1.008,0.234,2019-03-17T21:23:48.364500,9,EyesClosed
-16780.683908544055,-9014.190317891875,3574.826249459535,-2596.8927260509404,27622.866943224308,8560.539312426963,10198.296332156222,10316.80528125826,0.0,0.0,0.0,2019-03-17T21:23:48.364890,9,EyesClosed
-16942.711704100573,-9188.556276387724,3512.7778068516027,-2553.776210996653,27496.132552162715,8967.922206869389,10075.406441140944,10318.258144647854,0.0,0.0,0.0,2019-03-17T21:23:48.371690,9,EyesClosed
-17025.524917307488,-9280.60076005468,3377.6615116192716,-2729.170349737448,27386.877225265172,8827.620306923427,9974.354204458501,10169.730802742339,0.0,0.0,0.0,2019-03-17T21:23:48.372097,9,EyesClosed
-16878.450438791566,-9122.9539064114,3414.765407415081,-2800.830042461162,27495.618462040242,8399.986732004492,10083.341310422578,10148.429590276432,0.0,0.0,0.0,2019-03-17T21:23:48.379171,9,EyesClosed
-16762.04255366833,-9003.483832297783,3565.2820545771187,-2621.770217629697,27631.51706832851,8504.34702686632,10206.834698538149,10307.0822724202,0.0,0.0,0.0,2019-03-17T21:23:48.379514,9,EyesClosed
-16896.44359307809,-9142.914014209988,3550.149923580876,-2526.1271031054384,27540.79133758442,8953.818256118091,10117.092444550091,10355.116171254656,0.0,0.0,0.0,2019-03-17T21:23:48.387226,9,EyesClosed
-17021.23338237207,-9267.055602914763,3405.154157299299,-2684.220991637825,27399.729478326975,8924.67158134837,9988.480506954254,10215.708341086905,0.0,0.0,0.0,2019-03-17T21:23:48.387597,9,EyesClosed
-16914.257933408968,-9152.43585734795,3399.00742757409,-2807.2002896309245,27469.10929311625,8468.628939226739,10062.04009795667,10150.709468210873,0.0,0.0,0.0,2019-03-17T21:23:48.395229,9,EyesClosed
-16771.162065406093,-9013.318599858118,3551.7145456927474,-2653.62145347851,27626.040890936958,8458.078915843835,10209.963942761891,10295.928751937003,0.0,0.0,0.0,2019-03-17T21:23:48.395692,9,EyesClosed
-16868.682726464598,-9130.218223359374,3565.796144699591,-2522.483768759223,27567.92635535316,8904.376197382951,10152.698773467395,10375.545665686806,0.036000000000000004,1.008,0.23600000000000002,2019-03-17T21:23:48.401884,9,EyesClosed
-17011.197449111634,-9275.035175685309,3429.0705238664777,-2645.5301219856888,27415.04042327886,8991.25742808073,10008.082986841559,10253.818065383204,0.0,0.0,0.0,2019-03-17T21:23:48.402375,9,EyesClosed
-16941.63882036672,-9196.044110780253,3383.1823924997325,-2805.769777985785,27442.264848025425,8549.631661132773,10038.928394189883,10148.653107720984,0.0,0.0,0.0,2019-03-17T21:23:48.408840,9,EyesClosed
-16785.154257435115,-9036.385600135995,3522.9702023232226,-2697.3638173775457,27601.811599947407,8410.737921087495,10186.91929422847,10253.50514096083,0.0,0.0,0.0,2019-03-17T21:23:48.416892,9,EyesClosed
-16838.977258083494,-9096.265923531762,3579.2071913727755,-2532.9220334198517,27587.75235268502,8827.709713901248,10168.568512030663,10359.206540489977,0.0,0.0,0.0,2019-03-17T21:23:48.417313,9,EyesClosed
-16993.83014366986,-9262.741716234888,3453.6350910228603,-2606.7945488446417,27428.295007740857,9022.59457380707,10015.682579956363,10263.943405621458,0.0,0.0,0.0,2019-03-17T21:23:48.424850,9,EyesClosed
-16966.248091012014,-9230.085817585685,3376.543924396506,-2784.736786453341,27413.5205046559,8624.80057773597,10005.825460651573,10132.068113335146,0.0,0.0,0.0,2019-03-17T21:23:48.425216,9,EyesClosed
-16786.428306869067,-9042.040591483188,3506.9440015487676,-2711.1548437064703,27581.806788659906,8385.65926380864,10165.729840484839,10216.44594865393,0.0,0.0,0.0,2019-03-17T21:23:48.431512,9,EyesClosed
-16797.581827352267,-9052.925891032923,3601.9389154838227,-2520.2932978026033,27613.456858808622,8748.718648996193,10191.63551230854,10351.517540397352,0.0,0.0,0.0,2019-03-17T21:23:48.431884,9,EyesClosed
-16965.152855533703,-9236.009029866342,3490.6942833297594,-2559.498257577212,27454.066569097828,9035.089198957587,10041.498844802243,10282.495353519364,0.0,0.0,0.0,2019-03-17T21:23:48.439469,9,EyesClosed
-16971.92543410366,-9239.115922345629,3392.324255981953,-2744.4365912004223,27407.105553997226,8714.229907301655,9999.388158248445,10138.728933182829,0.032,1.012,0.23600000000000002,2019-03-17T21:23:48.439919,9,EyesClosed
-16805.919028034095,-9060.547835892181,3493.130623475388,-2729.863253815562,27561.667866905675,8382.641778307174,10146.77556118674,10181.174895903456,0.0,0.0,0.0,2019-03-17T21:23:48.447500,9,EyesClosed
-16778.493437587433,-9031.69173380038,3609.784377787635,-2538.778190467142,27631.070033439402,8666.575988122939,10207.818175294182,10328.249374419376,0.0,0.0,0.0,2019-03-17T21:23:48.447886,9,EyesClosed
-16946.667962869164,-9209.67867489799,3526.322963991519,-2532.5420537641116,27490.00817418196,9028.338972132084,10068.119772448514,10299.437975816487,0.0,0.0,0.0,2019-03-17T21:23:48.454601,9,EyesClosed
-17002.167344351692,-9268.799038982277,3398.158061284788,-2727.605727625576,27397.449600392534,8791.45518439474,9983.719585385274,10140.539424483708,0.0,0.0,0.0,2019-03-17T21:23:48.455015,9,EyesClosed
-16847.89560412116,-9104.893696891511,3459.021861436589,-2769.9846351128385,27522.93229376463,8387.290941153877,10107.883525834504,10143.467503007354,0.0,0.0,0.0,2019-03-17T21:23:48.462161,9,EyesClosed
-16765.976460692462,-9021.40993135094,3601.268363150163,-2581.4476706323235,27636.210934664123,8578.957149858135,10208.73459681685,10306.724644508917,0.0,0.0,0.0,2019-03-17T21:23:48.462651,9,EyesClosed
-16910.949875229584,-9179.794392561245,3548.6747084468257,-2527.3117455615698,27518.149020451194,9002.008617163732,10091.209124470846,10323.153176683567,0.0,0.0,0.0,2019-03-17T21:23:48.469235,9,EyesClosed
-17009.543420021942,-9280.287835632305,3403.902459609802,-2711.2442506842913,27394.812094546807,8877.867028458957,9977.729317871252,10173.038860921724,0.0,0.0,0.0,2019-03-17T21:23:48.477802,9,EyesClosed
-16870.917900910128,-9120.226993587852,3438.055925137511,-2788.6930452219303,27503.173351666137,8447.506540716475,10085.867057546027,10154.799837446195,0.0,0.0,0.0,2019-03-17T21:23:48.478339,9,EyesClosed
-16766.17762639256,-9021.342876117573,3584.012816430666,-2620.4961681957448,27637.84261200936,8520.887317763249,10211.461509640398,10309.831536988204,0.036000000000000004,1.01,0.23800000000000002,2019-03-17T21:23:48.483936,9,EyesClosed
-16902.076232680825,-9175.033470992264,3561.951644653278,-2526.0600478720726,27544.07704401935,8958.065087564599,10119.886412607004,10361.441714935509,0.0,0.0,0.0,2019-03-17T21:23:48.484351,9,EyesClosed
-17032.923344722192,-9308.22751620144,3415.972401615668,-2674.810907222141,27402.590501617255,8949.571424671582,9987.340567987034,10230.59460289414,0.0,0.0,0.0,2019-03-17T21:23:48.491734,9,EyesClosed
-16925.769081803453,-9187.86337230961,3411.0103143465894,-2791.2187923453803,27476.23949959749,8508.571506568374,10064.342327635566,10172.278901610243,0.0,0.0,0.0,2019-03-17T21:23:48.492118,9,EyesClosed
-16785.958920235506,-9038.26314667024,3553.0109468711553,-2653.5096947562333,27625.549152558942,8461.118753089757,10202.498460113819,10304.668284019028,0.0,0.0,0.0,2019-03-17T21:23:48.499751,9,EyesClosed
-16862.692458950576,-9121.389284299526,3584.3257408530408,-2509.9220883753405,27579.348096769823,8901.112842692477,10148.742514698806,10392.242418794922,0.0,0.0,0.0,2019-03-17T21:23:48.500089,9,EyesClosed
-17002.681434474165,-9269.916626205042,3457.278425369075,-2613.5000721812335,27428.6749873966,9008.40121607795,10002.629161194463,10279.947254651459,0.0,0.0,0.0,2019-03-17T21:23:48.506880,9,EyesClosed
-16934.150985974193,-9200.492107926859,3416.1735673157655,-2762.8767803760506,27455.76530167643,8581.259379537032,10030.07710338558,10181.867799981572,0.0,0.0,0.0,2019-03-17T21:23:48.507330,9,EyesClosed
-16774.783048007852,-9035.469178613326,3553.793257927091,-2664.037366394683,27612.965120430606,8419.76802584744,10175.810477234183,10285.915170421025,0.0,0.0,0.0,2019-03-17T21:23:48.514415,9,EyesClosed
-16828.04725504485,-9091.639112429513,3613.5841743450374,-2502.523660960634,27599.50937026851,8815.371550961918,10155.537445013219,10396.086918841234,0.0,0.0,0.0,2019-03-17T21:23:48.514692,9,EyesClosed
-16990.432678512654,-9265.222759869428,3486.000416994145,-2575.882086262952,27437.839202623276,9021.298172628662,9993.666111667886,10304.064786918734,0.03,1.014,0.23,2019-03-17T21:23:48.522433,9,EyesClosed
-16963.431771210646,-9235.226718810407,3407.6352009338384,-2750.315099992168,27420.650711137143,8639.70919128766,9978.824553349561,10174.312910355677,0.0,0.0,0.0,2019-03-17T21:23:48.522775,9,EyesClosed
-16802.49921113243,-9064.45939117186,3521.0479523000663,-2700.3589511345567,27571.748503655017,8372.315272368822,10122.345104497088,10243.335097233665,0.0,0.0,0.0,2019-03-17T21:23:48.529544,9,EyesClosed
-16795.860743029207,-9065.621681883536,3621.5860988600375,-2508.715094174754,27611.13227738527,8721.829500416457,10153.078753123136,10388.219104792966,0.0,0.0,0.0,2019-03-17T21:23:48.537512,9,EyesClosed
-16963.722343888563,-9245.754390448856,3516.734065620192,-2536.45360904379,27454.401845264656,9026.439073853382,10000.371635004478,10337.972383257436,0.0,0.0,0.0,2019-03-17T21:23:48.537855,9,EyesClosed
-16987.07991684436,-9263.255806357362,3401.868450864369,-2732.5901666391096,27392.04047823435,8719.34845678192,9946.034544233626,10191.702567541906,0.0,0.0,0.0,2019-03-17T21:23:48.545410,9,EyesClosed
-16810.74700483644,-9071.880170331022,3502.8759840579014,-2722.2189572118473,27549.240296988526,8381.926522484604,10097.445261173876,10240.988164065859,0.0,0.0,0.0,2019-03-17T21:23:48.545746,9,EyesClosed
-16774.090143929738,-9037.793760036679,3620.177938959353,-2536.878292188441,27620.385899589768,8639.642136054294,10161.572416016152,10392.53299147284,0.0,0.0,0.0,2019-03-17T21:23:48.552094,9,EyesClosed
-16944.768064590462,-9217.68059941299,3537.431780985806,-2523.1766728373377,27480.39692406618,9015.442015581371,10026.925507417382,10375.232741264432,0.0,0.0,0.0,2019-03-17T21:23:48.552451,9,EyesClosed
-17005.676568231174,-9282.277140888827,3408.998657345612,-2714.552308863677,27385.938451998052,8804.64271362337,9943.128817454437,10224.269059213288,0.0,0.0,0.0,2019-03-17T21:23:48.560012,9,EyesClosed
-16852.388304756678,-9119.355275554095,3465.995605706645,-2764.3072920211903,27513.455154115578,8397.416281392132,10069.103249204547,10226.347771447632,0.022,1.01,0.23600000000000002,2019-03-17T21:23:48.560462,9,EyesClosed
-16775.36419336369,-9041.146521704975,3604.956400985289,-2582.878182277463,27627.873733982295,8560.02522230449,10173.418840577466,10383.882866368636,0.0,0.0,0.0,2019-03-17T21:23:48.566677,9,EyesClosed
-16922.662189324165,-9200.402700949038,3563.248045831686,-2514.817120411053,27518.663110573663,8990.117489113509,10065.638728813974,10410.660256226094,0.0,0.0,0.0,2019-03-17T21:23:48.567210,9,EyesClosed
-17025.413158585212,-9306.685245834024,3416.8441196494246,-2688.3784161065123,27393.314527668303,8884.103165161987,9946.593337845008,10257.93078636298,0.0,0.0,0.0,2019-03-17T21:23:48.574644,9,EyesClosed
-16893.314348854346,-9164.639909820546,3440.000526905123,-2778.411242772489,27491.170464893636,8441.225700524534,10043.622260525497,10219.999876022324,0.0,0.0,0.0,2019-03-17T21:23:48.575099,9,EyesClosed
-16776.37002186418,-9039.31367865964,3588.0361304326216,-2610.415531446401,27631.606475306333,8493.037044171935,10172.569474288162,10368.996604561402,0.0,0.0,0.0,2019-03-17T21:23:48.582750,9,EyesClosed
-16894.5883982883,-9164.371688887082,3578.7154529947584,-2501.4060737378686,27550.961381311583,8934.126369252965,10084.19067671188,10423.870137199181,0.0,0.0,0.0,2019-03-17T21:23:48.583280,9,EyesClosed
-17027.201298141634,-9306.752301067389,3422.0520761075113,-2657.0859738690824,27393.314527668303,8934.305183208608,9927.616706802453,10272.41471677002,0.0,0.0,0.0,2019-03-17T21:23:48.589835,9,EyesClosed
-16925.769081803453,-9195.77588984679,3406.29409626652,-2786.860202176595,27454.71476968703,8490.310131348388,9986.893533097928,10194.45183210991,0.0,0.0,0.0,2019-03-17T21:23:48.590215,9,EyesClosed
-16784.014318467896,-9045.102780473564,3547.8476939019793,-2656.0577936241384,27604.1138296263,8420.66209562565,10126.591935943597,10322.594383072184,0.0,0.0,0.0,2019-03-17T21:23:48.597777,9,EyesClosed
-16853.774112912906,-9128.541842525226,3589.868973477957,-2502.21073653826,27570.295640265424,8862.243159084697,10083.85540054505,10425.099483144222,0.028,1.006,0.244,2019-03-17T21:23:48.604829,9,EyesClosed
-17007.71057697661,-9290.07789970373,3454.35034684543,-2610.259069235214,27409.56424588731,8987.278817567685,9923.749855011685,10306.2329061309,0.0,0.0,0.0,2019-03-17T21:23:48.605224,9,EyesClosed
-16955.854529840297,-9228.744712918367,3404.573011943461,-2773.2032863144027,27423.66819663861,8565.83667586287,9939.843111019507,10195.927047243958,0.0,0.0,0.0,2019-03-17T21:23:48.612278,9,EyesClosed
-16788.976405736972,-9052.45650439936,3537.342374007985,-2685.7185585163306,27582.07500959337,8377.210304404534,10090.80679307065,10293.447708302463,0.0,0.0,0.0,2019-03-17T21:23:48.612640,9,EyesClosed
-16814.747967093943,-9085.805307126679,3613.7406365562247,-2502.881288871919,27593.69791671013,8782.44743137925,10099.769842597228,10424.428930810564,0.0,0.0,0.0,2019-03-17T21:23:48.618859,9,EyesClosed
-16975.41230623869,-9257.958442921454,3497.958600277734,-2555.1843708973374,27441.61664743622,9025.857928497546,9956.048125749603,10348.880034551625,0.0,0.0,0.0,2019-03-17T21:23:48.619216,9,EyesClosed
-16964.68346890014,-9243.07218111422,3406.875241622358,-2738.960413808872,27413.252283722435,8661.055107242479,9934.590451072509,10212.243820696332,0.0,0.0,0.0,2019-03-17T21:23:48.626957,9,EyesClosed
-16787.45648711401,-9051.853007299067,3524.713638390737,-2686.6796835279088,27580.108056081302,8389.727281299505,10097.199391984868,10290.162001867533,0.0,0.0,0.0,2019-03-17T21:23:48.627325,9,EyesClosed
-16779.36515562119,-9045.661574084947,3622.435465149339,-2501.0260940821286,27630.019501450006,8715.302791035509,10137.209014559867,10434.487215815452,0.0,0.0,0.0,2019-03-17T21:23:48.634917,9,EyesClosed
-16956.569785662865,-9236.545471733269,3511.727274862203,-2532.9890886532176,27469.399865794167,9024.87445174151,9980.612692905986,10378.540799443817,0.0,0.0,0.0,2019-03-17T21:23:48.635391,9,EyesClosed
-16984.911797632194,-9267.972024437431,3397.442805462218,-2728.0080590257717,27402.65755685062,8732.1113028659,9922.92284046684,10229.655829627018,0.034,1.006,0.246,2019-03-17T21:23:48.642118,9,EyesClosed
-16821.878173575184,-9090.588580440115,3485.218105938209,-2729.5950328820986,27551.4531196896,8370.303615367844,10070.71257480533,10264.479847488386,0.0,0.0,0.0,2019-03-17T21:23:48.642472,9,EyesClosed
-16779.633376554655,-9046.220367696329,3604.799938774102,-2545.1260858924493,27631.919399728704,8603.879344925803,10146.10500885308,10414.34829406122,0.0,0.0,0.0,2019-03-17T21:23:48.649596,9,EyesClosed
-16938.44252090961,-9216.8759366126,3540.8739496319236,-2514.683009944321,27500.98288070952,8995.325445571596,10019.549431747131,10405.876982912658,0.0,0.0,0.0,2019-03-17T21:23:48.649930,9,EyesClosed
-17023.066225417402,-9297.588085840713,3404.0365700765337,-2707.355047149068,27392.263995678903,8799.680626354293,9919.301857865079,10242.753951877827,0.0,0.0,0.0,2019-03-17T21:23:48.656714,9,EyesClosed
-16874.47182827852,-9134.353296083606,3461.838181237958,-2758.0711553181595,27515.422107627644,8384.049938207858,10039.666001756907,10235.780207607771,0.0,0.0,0.0,2019-03-17T21:23:48.664561,9,EyesClosed
-16778.02405095387,-9031.155291933454,3617.115749968976,-2562.0463564451165,27646.313923157923,8534.767751069994,10159.20313110389,10401.473689254963,0.0,0.0,0.0,2019-03-17T21:23:48.664855,9,EyesClosed
-16925.098529469793,-9187.192819975951,3574.3792145704288,-2488.0173788091397,27535.02458751495,8964.703555667826,10049.053734428137,10425.926497689068,0.0,0.0,0.0,2019-03-17T21:23:48.671610,9,EyesClosed
-17036.47727209059,-9302.863097532165,3428.0423436215337,-2656.3483663020575,27405.250359207435,8885.444269829306,9923.191061400303,10278.181466839489,0.0,0.0,0.0,2019-03-17T21:23:48.672077,9,EyesClosed
-16913.5426775864,-9168.395002889038,3440.715782727693,-2758.6299489295425,27492.10923816076,8437.135331289212,10006.965399618794,10229.141739504545,0.0,0.0,0.0,2019-03-17T21:23:48.679161,9,EyesClosed
-16789.065812714794,-9036.02797222471,3589.667807777859,-2599.932563296862,27634.869829996805,8462.772782179449,10137.119607582046,10371.499999940395,0.046,1.016,0.23600000000000002,2019-03-17T21:23:48.679606,9,EyesClosed
-16895.61657853324,-9150.133627669053,3595.0098747026773,-2480.686006627799,27567.97105884207,8912.400473642407,10064.56584508012,10439.49400657344,0.0,0.0,0.0,2019-03-17T21:23:48.687170,9,EyesClosed
-17031.917516221703,-9293.430661372025,3449.120038642888,-2619.6020984175325,27415.24158897896,8953.885311351456,9917.603125286476,10303.908324707547,0.0,0.0,0.0,2019-03-17T21:23:48.687579,9,EyesClosed
-16949.50663441499,-9199.553334659737,3421.180358073754,-2760.865123375073,27459.67685695611,8512.103082192312,9967.000480532704,10215.507175386809,0.0,0.0,0.0,2019-03-17T21:23:48.695190,9,EyesClosed
-16799.392318653147,-9039.31367865964,3566.8690284334457,-2635.9859271032724,27623.09046066886,8426.630011395218,10122.278049263723,10343.47091239344,0.0,0.0,0.0,2019-03-17T21:23:48.695564,9,EyesClosed
-16877.824589946817,-9123.66916223397,3602.251839906197,-2488.620875909433,27588.400553274223,8851.044935112588,10085.844705801572,10441.192739152044,0.0,0.0,0.0,2019-03-17T21:23:48.701841,9,EyesClosed
-17033.392731355754,-9292.536591593813,3472.701129043237,-2585.269818934181,27432.81006012083,9005.428434065394,9938.25613716318,10337.972383257436,0.0,0.0,0.0,2019-03-17T21:23:48.702212,9,EyesClosed
-16991.773783179975,-9238.73594268989,3403.254259020598,-2762.4968007203106,27433.659426410133,8588.881324396292,9946.68274482283,10213.316704430188,0.0,0.0,0.0,2019-03-17T21:23:48.710439,9,EyesClosed
-16829.90244983464,-9060.659594614459,3530.636850671393,-2685.6962067718755,27598.101210367826,8386.329816142299,10105.581296155608,10308.155156154056,0.0,0.0,0.0,2019-03-17T21:23:48.710879,9,EyesClosed
-16861.95485138355,-9101.56328696767,3608.2644591646745,-2505.9211261178407,27615.334405342866,8775.049003964545,10119.707598651363,10440.432779840563,0.0,0.0,0.0,2019-03-17T21:23:48.718430,9,EyesClosed
-17040.1206064368,-9286.814545013254,3484.8381262824687,-2566.136725680438,27453.95481037555,9025.321486630617,9967.089887510525,10361.464066679962,0.044,1.012,0.23800000000000002,2019-03-17T21:23:48.724740,9,EyesClosed
-17037.617211057808,-9283.148858922585,3387.5409826685172,-2758.9205216074615,27416.068603523807,8670.822819569448,9938.949041241294,10219.798710322228,0.0,0.0,0.0,2019-03-17T21:23:48.725183,9,EyesClosed
-16861.15018858316,-9097.897600877,3499.187946222776,-2720.833149055618,27578.02934384696,8380.585417817285,10101.222705986824,10288.865600689125,0.0,0.0,0.0,2019-03-17T21:23:48.731445,9,EyesClosed
-16849.683743677586,-9084.978292581833,3600.0613689495767,-2536.2300915992373,27627.069071181904,8691.00644481259,10146.283822808722,10431.782654736358,0.0,0.0,0.0,2019-03-17T21:23:48.731908,9,EyesClosed
-17023.13328065077,-9269.201370382472,3504.507661403139,-2551.8316092290415,27474.45136004107,9019.062998183132,9997.108280314003,10382.09472681221,0.0,0.0,0.0,2019-03-17T21:23:48.739489,9,EyesClosed
-17059.790141557474,-9311.490870891914,3382.6906541217154,-2746.6941173904083,27397.80722830382,8746.550529784028,9925.739160268207,10224.805501080216,0.0,0.0,0.0,2019-03-17T21:23:48.739887,9,EyesClosed
-16885.312424339347,-9126.753702968801,3465.7273847731813,-2755.321890750157,27542.802994585396,8377.634987549185,10064.252920657746,10251.538187448763,0.0,0.0,0.0,2019-03-17T21:23:48.747460,9,EyesClosed
-16824.627438143187,-9070.024975541231,3595.9709997142554,-2565.1756006688597,27635.56273407492,8598.112594856333,10144.585090230119,10405.497003256918,0.0,0.0,0.0,2019-03-17T21:23:48.747883,9,EyesClosed
-16983.861265642794,-9250.738829462389,3527.2393855141863,-2527.4011525393908,27501.63108129872,8994.744300215758,10012.776853177173,10399.551439231807,0.0,0.0,0.0,2019-03-17T21:23:48.754099,9,EyesClosed
-17059.43251364619,-9332.076827535251,3390.0667297919667,-2706.729198304319,27394.208597446515,8836.046914583078,9910.763491483152,10245.883196101571,0.0,0.0,0.0,2019-03-17T21:23:48.754535,9,EyesClosed
-16906.434822849613,-9163.455267364416,3440.715782727693,-2766.1177833220704,27513.902189004682,8417.62225837973,10027.50665277322,10230.236974982856,0.042,1.01,0.23800000000000002,2019-03-17T21:23:48.762130,9,EyesClosed
-16809.294141446848,-9058.893806802489,3584.4598513197725,-2588.8013945581192,27640.256600410536,8533.516053380496,10144.741552441306,10383.368776246165,0.0,0.0,0.0,2019-03-17T21:23:48.762537,9,EyesClosed
-16934.665076096666,-9198.569857903703,3560.8117056860574,-2498.5450504475893,27549.44146268862,8975.700613939836,10054.552263564143,10429.100445401722,0.0,0.0,0.0,2019-03-17T21:23:48.770137,9,EyesClosed
-17052.794045542963,-9327.248850732905,3411.77027365807,-2663.679738483398,27409.363080187213,8918.10016847851,9926.812044002061,10281.355414552143,0.0,0.0,0.0,2019-03-17T21:23:48.770519,9,EyesClosed
-16937.97313427605,-9192.020796778297,3412.083198080444,-2775.349053782112,27487.661241014153,8474.172171851656,10010.496975242731,10226.750102847827,0.0,0.0,0.0,2019-03-17T21:23:48.777184,9,EyesClosed
-16808.310664690813,-9064.660556871959,3553.9050166493676,-2634.398953246946,27630.779460761485,8472.406384039687,10145.613270475063,10363.118095769656,0.0,0.0,0.0,2019-03-17T21:23:48.784231,9,EyesClosed
-16902.992654203495,-9180.286130939261,3566.958435411267,-2506.1222918179383,27572.7096286666,8919.843604546024,10085.755298823751,10440.276317629376,0.0,0.0,0.0,2019-03-17T21:23:48.784632,9,EyesClosed
-17038.66774304721,-9327.427664688548,3423.706105197204,-2637.0811625815827,27422.05887103783,8978.025195363189,9941.653602320386,10311.954952711458,0.0,0.0,0.0,2019-03-17T21:23:48.791754,9,EyesClosed
-16956.92741357415,-9240.568785735224,3386.66926463476,-2787.9107341659947,27454.71476968703,8533.381942913764,9979.942140572328,10214.031960252758,0.0,0.0,0.0,2019-03-17T21:23:48.792205,9,EyesClosed
-16799.168801208594,-9074.070641287643,3534.436647228795,-2665.8255059511075,27615.51321929851,8419.879784569715,10134.258584291767,10334.418455889041,0.0,0.0,0.0,2019-03-17T21:23:48.799781,9,EyesClosed
-16854.690534435576,-9133.570985027669,3587.924371710345,-2498.9026783588743,27597.207140589613,8850.37438277893,10117.04774106118,10447.339468877253,0.034,1.014,0.232,2019-03-17T21:23:48.800161,9,EyesClosed
-17016.427757314177,-9304.919458022054,3454.037422423056,-2589.069615491583,27429.792574619365,9026.148501175465,9959.356183928989,10344.789665316304,0.0,0.0,0.0,2019-03-17T21:23:48.806887,9,EyesClosed
-16970.2043497806,-9254.628032997613,3393.19597401571,-2756.7524023952965,27433.257095009936,8633.003667951069,9968.587454389031,10227.755931348316,0.0,0.0,0.0,2019-03-17T21:23:48.807330,9,EyesClosed
-16806.589580367756,-9083.726594892334,3515.1470917638653,-2692.088805686093,27591.865073664794,8402.780700061405,10119.19350852889,10307.574010798218,0.0,0.0,0.0,2019-03-17T21:23:48.814391,9,EyesClosed
-16830.99768531295,-9107.33003703714,3597.9379532263224,-2514.5712512220443,27612.719251241597,8769.326957383986,10131.688133679407,10434.643678026638,0.0,0.0,0.0,2019-03-17T21:23:48.814850,9,EyesClosed
-16995.819448926384,-9287.149821180084,3489.8449170404574,-2560.6381965444325,27458.536917988888,9040.677135071413,9977.394041704421,10362.29108122481,0.0,0.0,0.0,2019-03-17T21:23:48.822412,9,EyesClosed
-16996.422946026676,-9289.7426235369,3391.3631309703746,-2749.7563063807856,27415.66627212361,8700.707101906193,9936.289183651112,10215.39541666453,0.0,0.0,0.0,2019-03-17T21:23:48.822838,9,EyesClosed
-16836.943249338063,-9114.303781307195,3484.771071049103,-2737.0158120412602,27563.07602680636,8370.795353745862,10074.847647529561,10254.734486905872,0.0,0.0,0.0,2019-03-17T21:23:48.830416,9,EyesClosed
-16807.23778095696,-9089.426289728439,3603.280020151141,-2540.1416468789157,27634.33338812988,8671.828648069937,10135.018543603248,10408.045102124823,0.0,0.0,0.0,2019-03-17T21:23:48.830863,9,EyesClosed
-16968.527968946455,-9259.992451666887,3517.0469900425664,-2532.944385164307,27491.796313738385,9029.188338421385,9997.711777414295,10381.29006401182,0.0,0.0,0.0,2019-03-17T21:23:48.836724,9,EyesClosed
-17006.03419614246,-9298.325693407738,3400.192070030221,-2714.3734949080344,27415.71097561252,8790.248190194154,9932.645849304898,10236.383704708065,0.03,1.018,0.23800000000000002,2019-03-17T21:23:48.837186,9,EyesClosed
-16852.634173945688,-9139.583604286147,3470.220085408698,-2740.346221965101,27548.994427799516,8400.746691315971,10062.934167734882,10250.26413801481,0.0,0.0,0.0,2019-03-17T21:23:48.844097,9,EyesClosed
-16785.780106279864,-9071.455487186371,3604.799938774102,-2550.2669871171697,27650.292533670967,8603.834641436892,10157.370288058555,10409.497965514418,0.0,0.0,0.0,2019-03-17T21:23:48.851992,9,EyesClosed
-16944.16456749017,-9239.87588165711,3543.4444002442838,-2510.749102920187,27520.07127047435,9008.468271311316,10032.93812667586,10408.670950969572,0.0,0.0,0.0,2019-03-17T21:23:48.852340,9,EyesClosed
-17026.97778069708,-9325.572469898758,3403.0977968094107,-2694.033407453705,27403.417516162102,8865.059478886065,9925.560346312564,10256.880254373582,0.0,0.0,0.0,2019-03-17T21:23:48.860017,9,EyesClosed
-16875.991746901484,-9160.348374885127,3445.7672769745923,-2762.809725142685,27517.433764628622,8441.382162735721,10040.98475467977,10240.719943132395,0.0,0.0,0.0,2019-03-17T21:23:48.860469,9,EyesClosed
-16774.13484741865,-9054.490513144794,3590.271304878152,-2590.7012928368204,27648.37028364781,8532.890204535748,10159.62781424854,10389.716671671471,0.0,0.0,0.0,2019-03-17T21:23:48.866670,9,EyesClosed
-16906.188953660603,-9196.871125325099,3569.797106957091,-2499.617934181444,27555.476433691554,8972.616073205003,10063.358850879533,10430.195680880033,0.0,0.0,0.0,2019-03-17T21:23:48.867101,9,EyesClosed
-17029.347065609345,-9326.265373976872,3419.191052817232,-2663.6350349944873,27407.507885397423,8934.23812797524,9923.861613733961,10276.46038251643,0.0,0.0,0.0,2019-03-17T21:23:48.874692,9,EyesClosed
-16914.950837487082,-9200.62621839359,3415.77123591557,-2778.478298005855,27478.34056357629,8483.49284928952,9998.02470183667,10209.271038683777,0.0,0.0,0.0,2019-03-17T21:23:48.875120,9,EyesClosed
-16770.715030516985,-9052.590614866092,3571.0041011576777,-2627.1569880434263,27634.266332896514,8463.353927535287,10142.193453573402,10346.019011261345,0.034,1.01,0.23600000000000002,2019-03-17T21:23:48.882821,9,EyesClosed
-16859.29499379337,-9149.775999757767,3598.1614706708756,-2482.0941665284836,27585.137198583747,8915.015627743678,10089.957426781348,10434.196643137533,0.0,0.0,0.0,2019-03-17T21:23:48.883559,9,EyesClosed
-17007.375300809777,-9305.634713844624,3459.3347858589636,-2603.7323598542644,27430.083147297282,8999.728739229291,9941.340677898012,10310.144461410579,0.0,0.0,0.0,2019-03-17T21:23:48.891235,9,EyesClosed
-16934.06157899637,-9222.73209365989,3419.638087706338,-2758.965225096372,27460.146243589672,8561.969824072103,9973.057803280093,10204.979503748358,0.0,0.0,0.0,2019-03-17T21:23:48.891581,9,EyesClosed
-16777.912292231595,-9056.725687590324,3559.023566129633,-2653.2191220783143,27621.436431579168,8424.439540438598,10123.820319631139,10313.452519589964,0.0,0.0,0.0,2019-03-17T21:23:48.897524,9,EyesClosed
-16834.685723148075,-9123.713865722879,3612.734808055736,-2492.2865620001035,27604.98554766006,8833.94585060428,10101.625037387019,10421.63496275365,0.0,0.0,0.0,2019-03-17T21:23:48.897824,9,EyesClosed
-16997.585236738352,-9296.448146873492,3485.352216404941,-2575.1221269514713,27444.723539915507,9027.668419798425,9948.292070423613,10324.404874373064,0.0,0.0,0.0,2019-03-17T21:23:48.904384,9,EyesClosed
-16961.151893276205,-9256.818503954233,3415.905346382302,-2748.728126135841,27441.81781313632,8647.197025680189,9953.142398970414,10204.755986303806,0.0,0.0,0.0,2019-03-17T21:23:48.912306,9,EyesClosed
-16796.486591873956,-9083.167801280952,3534.3025367620635,-2692.2676196417356,27600.89517842474,8400.187897704589,10105.581296155608,10283.456478530941,0.0,0.0,0.0,2019-03-17T21:23:48.912622,9,EyesClosed
-16822.05698753083,-9102.65852244598,3609.471453365261,-2521.1873675808156,27620.65412052323,8747.31048909551,10122.166290541445,10408.983875391947,0.0,0.0,0.0,2019-03-17T21:23:48.919593,9,EyesClosed
-16993.383108780756,-9280.086669932207,3499.970257278712,-2560.0346994441393,27465.264793069935,9033.681039056903,9972.610768390987,10346.75661882837,0.032,1.012,0.23600000000000002,2019-03-17T21:23:48.919933,9,EyesClosed
-16999.88746641725,-9282.254789144372,3404.930639854746,-2740.6591463874756,27423.48938268297,8718.655552703805,9936.132721439924,10213.897849786026,0.0,0.0,0.0,2019-03-17T21:23:48.926972,9,EyesClosed
-16832.919935336107,-9107.687664948424,3505.0441032700664,-2724.9235182909392,27580.711553181598,8390.37548188871,10091.454993659854,10266.469152744909,0.0,0.0,0.0,2019-03-17T21:23:48.927414,9,EyesClosed
-16808.981217024473,-9085.268865259752,3614.2323749342413,-2542.488580046723,27647.18564119168,8665.1454764778,10153.52578801224,10412.984837649446,0.0,0.0,0.0,2019-03-17T21:23:48.935044,9,EyesClosed
-16973.646518426718,-9261.042983656285,3532.559100694549,-2531.1562456078823,27508.82834301333,9031.244698911274,10022.835138182061,10391.035424594334,0.0,0.0,0.0,2019-03-17T21:23:48.935435,9,EyesClosed
-17022.730949250574,-9314.776577326844,3409.356285256897,-2717.6144978540538,27423.735251871974,8804.039216523077,9948.15795995688,10243.379800722576,0.0,0.0,0.0,2019-03-17T21:23:48.942063,9,EyesClosed
-16867.118104352725,-9146.020906689275,3473.1481639323433,-2754.3384139941236,27552.682465634643,8405.641723351684,10077.37339465301,10249.146550792046,0.0,0.0,0.0,2019-03-17T21:23:48.942457,9,EyesClosed
-16788.730536547966,-9063.23004522682,3614.567651101071,-2564.46034484629,27663.211841966135,8586.623798206307,10180.884323225537,10406.033445123845,0.0,0.0,0.0,2019-03-17T21:23:48.951075,9,EyesClosed
-16933.033398751428,-9220.407512236538,3572.568723269549,-2499.014437081151,27550.469642933567,9012.580992291092,10071.092554461069,10424.384227321652,0.0,0.0,0.0,2019-03-17T21:23:48.951612,9,EyesClosed
-17029.011789442517,-9325.170138498563,3426.7906459320366,-2678.00720667925,27424.182286761083,8885.42191808485,9950.862521035973,10264.166923066012,0.0,0.0,0.0,2019-03-17T21:23:48.957618,9,EyesClosed
-16887.793467973886,-9179.369709416595,3450.6846607547595,-2766.2742455332573,27517.187895439612,8440.376334235232,10042.884652958472,10221.743312089839,0.024,1.01,0.23800000000000002,2019-03-17T21:23:48.958003,9,EyesClosed
-16769.061001427293,-9053.238815455295,3600.150775927398,-2596.4680429062896,27651.99126624957,8510.739625780538,10165.148695129,10368.974252816946,0.0,0.0,0.0,2019-03-17T21:23:48.964716,9,EyesClosed
-16898.11997391224,-9181.336662928661,3594.5628398135714,-2487.8385648534972,27572.46375947759,8957.819218375591,10083.117792978024,10422.48432904295,0.0,0.0,0.0,2019-03-17T21:23:48.971709,9,EyesClosed
-17035.404388356732,-9319.470443662458,3444.984965918656,-2643.6972789403535,27422.260036737924,8944.519930424683,9938.233785418724,10273.219379570412,0.0,0.0,0.0,2019-03-17T21:23:48.972117,9,EyesClosed
-16931.714645828564,-9212.785567377277,3431.618622734383,-2774.5667427261765,27479.368743821236,8490.176020881656,9994.582533190553,10191.411994863987,0.0,0.0,0.0,2019-03-17T21:23:48.979182,9,EyesClosed
-16782.18147542256,-9050.936585776399,3587.5220403101494,-2629.481569466778,27638.244943409558,8447.506540716475,10144.62979371903,10328.718761052938,0.0,0.0,0.0,2019-03-17T21:23:48.979584,9,EyesClosed
-16865.262909562935,-9147.250252634318,3621.831968049046,-2484.2846374851033,27597.765934200997,8891.434537343328,10102.3849966985,10422.149052876122,0.0,0.0,0.0,2019-03-17T21:23:48.987233,9,EyesClosed
-17018.618228270796,-9320.476272162947,3477.551457590039,-2603.464138920801,27435.67108341111,8992.73264321478,9947.509759367676,10296.576952526208,0.0,0.0,0.0,2019-03-17T21:23:48.987650,9,EyesClosed
-16953.21702399457,-9242.02164912482,3428.444675021729,-2763.3014635207014,27460.928554645605,8561.433382205174,9977.908131826895,10190.316759385678,0.0,0.0,0.0,2019-03-17T21:23:48.995272,9,EyesClosed
-16798.319434919293,-9082.65371115848,3562.2645690756526,-2671.0558141536494,27619.335367600368,8395.449327880064,10130.682305178918,10294.408833314043,0.0,0.0,0.0,2019-03-17T21:23:48.995656,9,EyesClosed
-16838.217298772015,-9134.24153736133,3627.1069797404984,-2499.752044648176,27617.614283277308,8801.133489743888,10123.350932997577,10415.711750472994,0.032,1.006,0.23800000000000002,2019-03-17T21:23:49.001802,9,EyesClosed
-17014.684321246663,-9315.245963960406,3492.5941816084605,-2582.2523334327143,27447.070473083317,9005.629599765492,9958.730335084241,10314.771272512828,0.0,0.0,0.0,2019-03-17T21:23:49.002139,9,EyesClosed
-16988.93511163415,-9280.041966443297,3417.894651638824,-2753.645509916009,27435.268752010914,8636.42348485273,9954.885835037927,10192.753099531306,0.0,0.0,0.0,2019-03-17T21:23:49.011345,9,EyesClosed
-16817.653693873133,-9099.976313111343,3538.5940716974824,-2694.9274772319172,27601.722192969584,8380.585417817285,10116.131319538514,10275.186333082478,0.0,0.0,0.0,2019-03-17T21:23:49.011773,9,EyesClosed
-16817.586638639765,-9101.093900334108,3629.1633402303864,-2508.1563005633716,27639.541344587964,8725.182262084754,10147.602575731586,10413.878907427657,0.0,0.0,0.0,2019-03-17T21:23:49.017886,9,EyesClosed
-16988.532780233953,-9282.388899611104,3516.890527831379,-2540.745143979209,27478.7875984654,9027.668419798425,9993.509649456699,10352.612775875661,0.0,0.0,0.0,2019-03-17T21:23:49.018227,9,EyesClosed
-17013.097347390336,-9303.533649865825,3410.384465501841,-2729.5279776487328,27423.04234779386,8726.992753385633,9946.794503545107,10209.695721828428,0.0,0.0,0.0,2019-03-17T21:23:49.025083,9,EyesClosed
-16840.832452873285,-9115.644885974514,3507.346332948963,-2722.353067678579,27574.94480311213,8386.732147542494,10097.557019896152,10251.672297915495,0.0,0.0,0.0,2019-03-17T21:23:49.031486,9,EyesClosed
-16799.258208186413,-9074.182400009919,3631.4879216537383,-2532.586757253022,27653.980571506094,8648.292261158498,10170.691927753918,10402.792442177826,0.0,0.0,0.0,2019-03-17T21:23:49.031903,9,EyesClosed
-16962.22477701006,-9251.230567840406,3553.279167804619,-2517.0969983454943,27513.05282271538,9026.394370364473,10035.665039499407,10380.664215167071,0.0,0.0,0.0,2019-03-17T21:23:49.039473,9,EyesClosed
-17023.580315539875,-9311.736740080922,3427.1035703544107,-2700.1130819455484,27424.09287978326,8825.586298177994,9955.48933213822,10233.612088395606,0.03,1.008,0.23800000000000002,2019-03-17T21:23:49.039856,9,EyesClosed
-16865.709944452043,-9143.338697354638,3492.3706641639073,-2740.7262016208415,27560.21500351608,8418.583383391308,10088.437508158388,10235.444931440941,0.0,0.0,0.0,2019-03-17T21:23:49.047615,9,EyesClosed
-16793.983196494963,-9069.019147040743,3628.9398227858333,-2563.9686064682733,27667.548080390465,8569.949396842647,10188.238047151333,10381.357119245187,0.0,0.0,0.0,2019-03-17T21:23:49.048059,9,EyesClosed
-16950.73598036003,-9239.317088045727,3580.145964639898,-2503.0153993386507,27551.855451089796,8987.547038501149,10075.339385907577,10396.1539740746,0.0,0.0,0.0,2019-03-17T21:23:49.054097,9,EyesClosed
-17062.047667747458,-9352.931005112054,3428.1988058327206,-2681.1364509029927,27419.510772169924,8876.347109835997,9952.20362570329,10237.009553552813,0.0,0.0,0.0,2019-03-17T21:23:49.054536,9,EyesClosed
-16927.49016612651,-9211.176241776497,3452.2716346110865,-2771.705719435897,27516.36088089477,8432.173244020134,10048.18201639438,10194.787108276738,0.0,0.0,0.0,2019-03-17T21:23:49.062090,9,EyesClosed
-16808.355368179724,-9092.555533952182,3603.6599998068814,-2612.4048367029236,27655.34402791787,8478.754279464994,10177.933892957437,10341.973345514936,0.0,0.0,0.0,2019-03-17T21:23:49.062479,9,EyesClosed
-16912.648607808187,-9203.174317261495,3611.1031307104986,-2487.950323575774,27589.18286433016,8935.91450880939,10112.443281703387,10415.331770817253,0.0,0.0,0.0,2019-03-17T21:23:49.070109,9,EyesClosed
-17056.526786866998,-9353.176874301062,3453.6350910228603,-2638.71283992682,27430.597237419755,8945.10107578052,9962.530131641643,10269.352527779643,0.0,0.0,0.0,2019-03-17T21:23:49.070389,9,EyesClosed
-16959.810788608884,-9246.15672184905,3436.2901373255418,-2769.917579879472,27488.62236602573,8498.222648885567,10019.50472825822,10188.975654718359,0.0,0.0,0.0,2019-03-17T21:23:49.077208,9,EyesClosed
-16814.569153138298,-9091.70616766288,3581.9341041963226,-2640.3445172720576,27646.403330135745,8429.200462007579,10167.093296896614,10316.067673691234,0.032,1.014,0.24,2019-03-17T21:23:49.077482,9,EyesClosed
-16891.593264531286,-9174.184104702963,3620.021476748166,-2492.3089137445586,27611.914588441206,8867.652281242881,10130.570546456642,10414.124776616667,0.0,0.0,0.0,2019-03-17T21:23:49.083768,9,EyesClosed
-17060.170121213214,-9352.863949878687,3468.454297596729,-2618.551566428133,27437.57098168981,8980.148611086443,9964.407678175889,10285.669301232017,0.0,0.0,0.0,2019-03-17T21:23:49.084059,9,EyesClosed
-16998.36754779429,-9287.127469435629,3417.000581860612,-2779.953513139905,27457.352275532758,8562.528617683485,9990.64862616642,10178.068003424169,0.0,0.0,0.0,2019-03-17T21:23:49.091808,9,EyesClosed
-16842.732351151986,-9123.624458745058,3547.802990413069,-2691.9323434749062,27620.65412052323,8379.356071872244,10145.948546641892,10279.477868017897,0.0,0.0,0.0,2019-03-17T21:23:49.099746,9,EyesClosed
-16868.190988086582,-9153.128761426064,3625.989392517733,-2513.0513325990837,27633.461670096123,8784.704957569236,10154.375154301542,10411.219049837477,0.0,0.0,0.0,2019-03-17T21:23:49.100139,9,EyesClosed
-17039.2712401475,-9337.731818882445,3498.2044694667425,-2586.230943945759,27465.108330858748,9009.563506789626,9996.616541935986,10321.65560980506,0.0,0.0,0.0,2019-03-17T21:23:49.106869,9,EyesClosed
-17021.85923121682,-9316.788234327822,3411.613811446883,-2770.6775391909528,27438.777975890396,8639.686839543205,9977.058765537593,10184.818230249672,0.0,0.0,0.0,2019-03-17T21:23:49.107240,9,EyesClosed
-16843.514662207923,-9128.653601247503,3529.407504726351,-2724.8788148020285,27601.431620291667,8356.669051250106,10136.717276181851,10254.421562483498,0.0,0.0,0.0,2019-03-17T21:23:49.114599,9,EyesClosed
-16834.596316170253,-9125.703170979401,3632.0690670095764,-2536.677126488343,27649.309056914935,8685.19499125421,10179.342052858121,10394.790517662826,0.0,0.0,0.0,2019-03-17T21:23:49.115103,9,EyesClosed
-17008.492888032542,-9309.680379591035,3538.147036808376,-2550.132876650438,27501.564026065356,9012.402178335451,10034.614507510008,10350.355249685676,0.03,1.008,0.234,2019-03-17T21:23:49.123822,9,EyesClosed
-17045.820301272906,-9343.23034801845,3428.7799511885587,-2732.746628850297,27440.700225913555,8732.692448221738,9980.567989417075,10208.82400379467,0.0,0.0,0.0,2019-03-17T21:23:49.124122,9,EyesClosed
-16884.887741194696,-9168.506761611314,3506.6310771263934,-2740.0109457982717,27582.56674797139,8366.772039743906,10119.148805039978,10237.50129193083,0.0,0.0,0.0,2019-03-17T21:23:49.131802,9,EyesClosed
-16839.424292972602,-9125.971391912864,3623.083665738543,-2555.944330208818,27659.032065752992,8597.643208222773,10186.606369806095,10381.312415756276,0.0,0.0,0.0,2019-03-17T21:23:49.132139,9,EyesClosed
-16999.64159722824,-9297.141050951606,3555.4249352723286,-2524.651887971388,27523.40168039819,8985.267160566707,10054.976946708794,10369.465991194964,0.0,0.0,0.0,2019-03-17T21:23:49.138112,9,EyesClosed
-17068.932005039693,-9368.04078436384,3426.321259298475,-2709.009076238761,27421.075394281794,8795.59025711897,9958.909149039882,10215.998913764824,0.0,0.0,0.0,2019-03-17T21:23:49.138570,9,EyesClosed
-16913.699139797587,-9197.653436381035,3484.92753326029,-2759.3452047521123,27544.702892864098,8382.485316095986,10077.70867081984,10208.622838094574,0.0,0.0,0.0,2019-03-17T21:23:49.145083,9,EyesClosed
-16823.66631313161,-9104.51371723577,3627.8445873075234,-2580.5759525985663,27661.021371009516,8519.54621309593,10184.594712805118,10354.266804965355,0.0,0.0,0.0,2019-03-17T21:23:49.145516,9,EyesClosed
-16965.801056122906,-9257.109076632152,3595.5910200585154,-2503.104806316472,27554.962343569085,8954.39940147393,10078.356871409043,10382.564113445773,0.0,0.0,0.0,2019-03-17T21:23:49.152101,9,EyesClosed
-17074.452885920153,-9371.639415221145,3453.478628811673,-2669.4464885528673,27424.71872862801,8880.973920938244,9956.629271105441,10234.819082596194,0.0,0.0,0.0,2019-03-17T21:23:49.160038,9,EyesClosed
-16952.34530596081,-9240.859358413143,3459.8488759814354,-2778.411242772489,27506.660223801166,8428.596964907285,10037.587289522564,10178.82796273565,0.038,1.008,0.23600000000000002,2019-03-17T21:23:49.160557,9,EyesClosed
-16825.655618388133,-9103.217316057362,3607.772720786658,-2623.8489298640407,27651.924211016205,8450.747543662494,10170.334299842632,10321.387388871597,0.0,0.0,0.0,2019-03-17T21:23:49.166679,9,EyesClosed
-16929.52417487194,-9218.842890124666,3615.6852383238365,-2504.0659313280503,27584.511349738998,8898.765909524669,10102.3849966985,10390.43192749404,0.0,0.0,0.0,2019-03-17T21:23:49.167078,9,EyesClosed
-17059.678382835198,-9357.356650514204,3482.446489625751,-2636.4776654812895,27441.460185225034,8942.195349001331,9966.933425299338,10263.786943410272,0.0,0.0,0.0,2019-03-17T21:23:49.174660,9,EyesClosed
-16975.077030071858,-9262.875826701622,3451.7575444886143,-2781.8087079296956,27483.660278756655,8494.735776750538,10015.101434600525,10174.268206866767,0.0,0.0,0.0,2019-03-17T21:23:49.174980,9,EyesClosed
-16820.60412414123,-9111.8003859282,3591.3218368675516,-2662.6515582384536,27636.43445210868,8397.684502325596,10161.728878227339,10293.447708302463,0.0,0.0,0.0,2019-03-17T21:23:49.182670,9,EyesClosed
-16899.34931985728,-9188.28805545426,3640.8980060694225,-2504.200041794782,27610.93111168517,8824.535766188594,10131.442264490399,10399.529087487352,0.0,0.0,0.0,2019-03-17T21:23:49.182987,9,EyesClosed
-17062.248833447557,-9351.90282486711,3510.9449638062674,-2597.026836517672,27452.501946985954,8975.387689517462,9981.462059195288,10298.812126971738,0.0,0.0,0.0,2019-03-17T21:23:49.189871,9,EyesClosed
-17005.900085675727,-9292.804812527278,3456.4961143131395,-2755.992443083816,27464.303668058357,8570.709356154128,9998.069405325581,10193.311893142689,0.0,0.0,0.0,2019-03-17T21:23:49.190251,9,EyesClosed
-16840.09484530626,-9113.543821995714,3585.2645141201633,-2673.156878132448,27626.845553737352,8363.888664709171,10151.29061356671,10289.022062900312,0.0,0.0,0.0,2019-03-17T21:23:49.197344,9,EyesClosed
-16866.71577295253,-9157.532055083759,3658.15355278892,-2494.141756789894,27636.479155597586,8741.387276814852,10156.140942113512,10415.82350919527,0.038,1.014,0.232,2019-03-17T21:23:49.197846,9,EyesClosed
-17029.525879564986,-9324.901917565097,3543.7126211777477,-2544.3437748365136,27480.553386277366,8992.866753681512,10000.706911171308,10342.33097342622,0.0,0.0,0.0,2019-03-17T21:23:49.205345,9,EyesClosed
-17029.056492931424,-9326.332429210237,3453.5233323005837,-2726.890471803006,27443.896525370663,8640.938537232701,9968.073364266558,10206.16414620449,0.0,0.0,0.0,2019-03-17T21:23:49.205640,9,EyesClosed
-16847.15799655414,-9138.778941485756,3573.798069214591,-2680.5553055471546,27609.120620384292,8352.422219803599,10124.826148131628,10277.80148718375,0.0,0.0,0.0,2019-03-17T21:23:49.212423,9,EyesClosed
-16836.987952826974,-9124.630287245547,3672.9951111072437,-2496.4439864687906,27654.80758605094,8655.981261251123,10159.761924715272,10414.840032439237,0.0,0.0,0.0,2019-03-17T21:23:49.219004,9,EyesClosed
-17006.972969409584,-9295.464670117459,3578.46958380575,-2504.2894487726035,27503.173351666137,8987.7705559457,10011.4133967654,10372.729345885438,0.0,0.0,0.0,2019-03-17T21:23:49.219538,9,EyesClosed
-17047.429626873687,-9352.506321967403,3455.378527090374,-2699.9789714788167,27423.33292047178,8709.938372366236,9937.2950121516,10215.59658236463,0.0,0.0,0.0,2019-03-17T21:23:49.227017,9,EyesClosed
-16883.121953382724,-9176.642796593047,3535.7554001516583,-2709.970201250339,27567.79224488643,8338.117103352202,10074.892351018472,10243.290393744755,0.0,0.0,0.0,2019-03-17T21:23:49.227350,9,EyesClosed
-16819.821813085295,-9114.974333640854,3664.076765069576,-2515.1300448334273,27660.082597742392,8563.31092873942,10157.370288058555,10403.619456722672,0.0,0.0,0.0,2019-03-17T21:23:49.235023,9,EyesClosed
-16976.932224861648,-9280.35489086567,3598.5190985821605,-2473.2205239797263,27529.324892678847,8962.133105055465,10028.423074295888,10404.088843356234,0.0,0.0,0.0,2019-03-17T21:23:49.235451,9,EyesClosed
-17056.638545589274,-9360.910577882598,3461.9499399602346,-2656.19190409087,27419.13079251418,8792.639826850871,9922.788730000108,10250.93469034847,0.04,1.016,0.234,2019-03-17T21:23:49.242131,9,EyesClosed
-16908.96056997306,-9197.899305570043,3509.514452161128,-2718.2403466988026,27538.22088697206,8370.393022345665,10037.408475566921,10237.523643675286,0.0,0.0,0.0,2019-03-17T21:23:49.242478,9,EyesClosed
-16816.178478739082,-9099.641036944513,3653.705555642314,-2542.4662283022676,27663.301248943957,8480.832991699337,10152.028221133736,10390.789555405327,0.0,0.0,0.0,2019-03-17T21:23:49.249629,9,EyesClosed
-16953.3511344613,-9248.347192805672,3625.1847297173417,-2460.6141401069335,27561.39964597221,8914.657999832392,10052.428847840887,10428.25107911242,0.0,0.0,0.0,2019-03-17T21:23:49.250028,9,EyesClosed
-17056.057400233436,-9359.480066237458,3488.2355914396753,-2615.623487904488,27432.877115354197,8869.865103943957,9934.903375494883,10294.788812969782,0.0,0.0,0.0,2019-03-17T21:23:49.259050,9,EyesClosed
-16940.409474421678,-9233.103303087151,3496.2375159546755,-2725.3705531800456,27513.812782026864,8426.294735228388,10019.281210813668,10242.329268733176,0.0,0.0,0.0,2019-03-17T21:23:49.259398,9,EyesClosed
-16816.51375490591,-9099.976313111343,3641.1885787473416,-2579.8606967759965,27656.014580251525,8422.51729041544,10152.609366489574,10380.23953202242,0.0,0.0,0.0,2019-03-17T21:23:49.265651,9,EyesClosed
-16913.766195030952,-9209.231640008884,3653.593796920037,-2457.328433672003,27595.37429754428,8866.959377164767,10093.779575083207,10458.135361449165,0.0,0.0,0.0,2019-03-17T21:23:49.265986,9,EyesClosed
-17060.90772878024,-9363.302214539315,3501.154899734843,-2598.7255690962756,27436.073414811304,8916.58024985555,9942.927651754339,10322.415569116542,0.0,0.0,0.0,2019-03-17T21:23:49.271928,9,EyesClosed
-16973.3559457488,-9266.586216281203,3466.9567307182233,-2739.1839312534253,27481.358049077757,8480.67652948815,9990.916847099883,10235.377876207576,0.0,0.0,0.0,2019-03-17T21:23:49.279216,9,EyesClosed
-16821.18526949707,-9108.537031237725,3604.2634969071746,-2624.608889175521,27638.982550976583,8360.401792574143,10137.991325615803,10351.495188652896,0.0,0.0,0.0,2019-03-17T21:23:49.279508,9,EyesClosed
-16889.04516566338,-9183.236561207363,3647.0670875390874,-2470.4712594117236,27612.853361708327,8772.992643474656,10109.783424113206,10454.424971869585,0.04,1.01,0.24,2019-03-17T21:23:49.287202,9,EyesClosed
-17047.228461173592,-9347.588938187235,3516.1976237532645,-2557.7995249986084,27453.172499319615,8940.67543037837,9956.986899016727,10351.226967719433,0.0,0.0,0.0,2019-03-17T21:23:49.287547,9,EyesClosed
-17013.03029215697,-9303.712463821466,3446.0354979080557,-2732.768980594752,27447.629266694697,8533.292535935943,9953.58943385952,10223.598506879629,0.0,0.0,0.0,2019-03-17T21:23:49.295216,9,EyesClosed
-16846.509795964932,-9123.937383167433,3575.51915353765,-2659.4329070368894,27612.048698907936,8312.099672806224,10108.218802001335,10312.714912022939,0.0,0.0,0.0,2019-03-17T21:23:49.295718,9,EyesClosed
-16864.61470897373,-9155.8109707607,3663.696785413836,-2474.8298495805084,27636.881486997783,8690.000616312102,10124.557927198164,10449.082904944768,0.0,0.0,0.0,2019-03-17T21:23:49.301845,9,EyesClosed
-17034.443263345154,-9332.70267638,3556.564874239549,-2516.627611711933,27480.19575836608,8959.339136998551,9970.576759645553,10380.172476789056,0.0,0.0,0.0,2019-03-17T21:23:49.302181,9,EyesClosed
-17037.639562802266,-9333.932022325042,3461.0782219264775,-2701.230669168314,27438.28623751238,8624.577060291418,9932.712904538263,10239.132969276068,0.0,0.0,0.0,2019-03-17T21:23:49.309912,9,EyesClosed
-16868.883892164697,-9154.872197493578,3561.526961508627,-2678.2754276127134,27592.915605654194,8310.244478016433,10077.552208608653,10289.580856511695,0.0,0.0,0.0,2019-03-17T21:23:49.310387,9,EyesClosed
-16846.442740731567,-9133.61568851658,3673.509201229716,-2489.11261428745,27655.34402791787,8608.304990327953,10131.375209257032,10439.002268195423,0.0,0.0,0.0,2019-03-17T21:23:49.317953,9,EyesClosed
-17010.526896777978,-9307.8475365457,3582.895229207901,-2486.497460186179,27508.940101735607,8962.691898666848,9987.385271475945,10408.559192247296,0.0,0.0,0.0,2019-03-17T21:23:49.318453,9,EyesClosed
-17054.582185099385,-9348.214787031984,3454.6632712678042,-2678.2307241238027,27424.04817629435,8710.430110744252,9907.746005981686,10252.387553738065,0.04,1.008,0.242,2019-03-17T21:23:49.325155,9,EyesClosed
-16907.82063100584,-9192.043148522753,3516.801120853558,-2716.519262375744,27549.50851792199,8313.50783270691,10031.2170423528,10257.059068329223,0.0,0.0,0.0,2019-03-17T21:23:49.325652,9,EyesClosed
-16843.00057208545,-9132.90043269401,3644.563692160093,-2534.710172976276,27645.106928957335,8511.745454281026,10118.47825270632,10411.643732982127,0.0,0.0,0.0,2019-03-17T21:23:49.331487,9,EyesClosed
-16989.002166867514,-9291.195486926496,3586.1362321539204,-2484.1952305072823,27525.770965310454,8926.325610438063,10001.3104082716,10425.121834888678,0.0,0.0,0.0,2019-03-17T21:23:49.331810,9,EyesClosed
-17080.890188323283,-9376.936778657053,3451.2434543661425,-2659.187037847881,27415.554513401334,8787.49892562615,9900.347578566978,10276.907417405537,0.0,0.0,0.0,2019-03-17T21:23:49.339553,9,EyesClosed
-16939.604811621288,-9222.530927959791,3494.2035072092426,-2726.599899125087,27530.10720373478,8363.642795520163,10018.141271846447,10260.814161397715,0.0,0.0,0.0,2019-03-17T21:23:49.347474,9,EyesClosed
-16828.60604865623,-9116.8518801751,3644.6530991379145,-2554.2455976302144,27665.737589089586,8453.72032567505,10144.518034996752,10416.002323150913,0.0,0.0,0.0,2019-03-17T21:23:49.347760,9,EyesClosed
-16966.98569857904,-9267.703803503968,3615.6181830904707,-2468.9960442776733,27566.764064641484,8882.739708750214,10047.623222782997,10452.413314868607,0.0,0.0,0.0,2019-03-17T21:23:49.354197,9,EyesClosed
-17093.965958829638,-9394.929932943574,3467.157896418321,-2629.4368659778675,27424.495211183457,8848.60859496696,9914.943267696293,10305.987036941891,0.0,0.0,0.0,2019-03-17T21:23:49.354550,9,EyesClosed
-16985.82821915486,-9273.135277406607,3461.5923120489497,-2752.3938122265117,27496.19960739608,8398.667979081629,9989.821611621574,10239.088265787157,0.0,0.0,0.0,2019-03-17T21:23:49.362890,9,EyesClosed
-16841.659467418132,-9123.691513978423,3612.7795115446465,-2604.648781376932,27652.550059860954,8379.154906172145,10137.991325615803,10378.607854677184,0.042,1.008,0.234,2019-03-17T21:23:49.363333,9,EyesClosed
-16933.43573015162,-9224.20730879394,3631.554976887104,-2468.7725268331205,27601.006937147016,8822.0323708096,10085.062394745635,10460.482294616973,0.0,0.0,0.0,2019-03-17T21:23:49.369541,9,EyesClosed
-17084.242949991578,-9383.99992990493,3487.1627077058206,-2596.7362638397535,27442.488365469977,8901.76104328168,9932.511738838166,10332.317391910243,0.0,0.0,0.0,2019-03-17T21:23:49.369984,9,EyesClosed
-17020.696940505142,-9311.60262961419,3440.067582138489,-2757.9146931069727,27468.125816360214,8460.58231122283,9961.300785696601,10224.000838279824,0.0,0.0,0.0,2019-03-17T21:23:49.377482,9,EyesClosed
-16860.077304849303,-9143.696325265924,3584.795127486602,-2648.324090042602,27635.093347441358,8324.549594467831,10119.2382120178,10335.089008222702,0.0,0.0,0.0,2019-03-17T21:23:49.378033,9,EyesClosed
-16909.608770562267,-9201.453232938436,3643.62491889297,-2481.8035938505645,27628.633693293774,8737.878052935368,10106.922400822927,10450.02167821189,0.0,0.0,0.0,2019-03-17T21:23:49.385502,9,EyesClosed
-17084.488819180588,-9388.269113095894,3502.0266177686,-2574.6303885734546,27456.637019710186,8917.653133589403,9940.625422075442,10342.62154610414,0.0,0.0,0.0,2019-03-17T21:23:49.385908,9,EyesClosed
-17049.597746085852,-9349.600595188213,3429.942241900235,-2747.610538913076,27450.020903351415,8531.079713234867,9939.217262174758,10218.032922510258,0.0,0.0,0.0,2019-03-17T21:23:49.392705,9,EyesClosed
-16875.410601545645,-9162.740011541846,3560.699946963781,-2673.4698025548223,27621.972873446095,8299.40388195561,10104.441357188387,10308.043397431778,0.0,0.0,0.0,2019-03-17T21:23:49.393038,9,EyesClosed
-16886.877046451216,-9178.609750105114,3645.7706863606795,-2488.620875909433,27654.494661628567,8658.931691519225,10128.022447588737,10446.177178165577,0.0,0.0,0.0,2019-03-17T21:23:49.399261,9,EyesClosed
-17063.634641603785,-9366.677327952068,3523.1713680233206,-2540.1416468789157,27486.945985191585,8937.255613476707,9964.318271198068,10371.611758662673,0.046,1.01,0.232,2019-03-17T21:23:49.407103,9,EyesClosed
-17071.18953122968,-9372.66759546609,3419.9733638731677,-2729.282108459724,27435.268752010914,8618.31857184393,9921.58173579952,10226.50423365882,0.0,0.0,0.0,2019-03-17T21:23:49.407512,9,EyesClosed
-16900.086927424305,-9192.11020375612,3523.50664419015,-2708.4726343718335,27594.301413810423,8294.68766387554,10076.680490574896,10281.869504674614,0.0,0.0,0.0,2019-03-17T21:23:49.415069,9,EyesClosed
-16872.706040466554,-9166.495104610338,3633.9689652882776,-2525.590661238511,27656.439263396176,8566.373117729798,10130.682305178918,10424.026599410368,0.0,0.0,0.0,2019-03-17T21:23:49.415365,9,EyesClosed
-17032.409254599723,-9339.318792738772,3554.1285340939207,-2512.9619256212623,27514.796258782895,8928.203156972308,9992.459117467299,10397.875058397658,0.0,0.0,0.0,2019-03-17T21:23:49.421759,9,EyesClosed
-17097.09520305338,-9407.424558094091,3423.5272912415617,-2703.1752709359257,27422.081222782283,8695.521497192562,9910.629381016419,10242.150454777535,0.0,0.0,0.0,2019-03-17T21:23:49.422111,9,EyesClosed
-16940.25301221049,-9238.311259545238,3490.0460827405554,-2735.5629486516655,27555.856413347294,8304.298913991322,10046.41622858241,10252.588719438163,0.0,0.0,0.0,2019-03-17T21:23:49.431120,9,EyesClosed
-16856.791598414373,-9153.262871892795,3630.213872219786,-2548.009460927184,27665.62583036731,8488.812564469883,10149.614232732563,10411.509622515396,0.0,0.0,0.0,2019-03-17T21:23:49.431516,9,EyesClosed
-17002.32380656288,-9311.379112169638,3581.956455940778,-2489.9843323212067,27548.860317332783,8907.61720032897,10038.257841856223,10425.25594535541,0.0,0.0,0.0,2019-03-17T21:23:49.439167,9,EyesClosed
-17104.583037445907,-9414.644171553156,3441.1851693612543,-2666.093726884571,27427.13271702918,8787.208352948232,9926.409712601866,10271.40888826953,0.0,0.0,0.0,2019-03-17T21:23:49.439510,9,EyesClosed
-16983.011899353492,-9282.232437399916,3460.7429457596477,-2758.6299489295425,27518.529000106933,8339.659373719618,10018.230678824268,10226.392474936543,0.044,1.012,0.228,2019-03-17T21:23:49.445361,9,EyesClosed
-16861.641926961176,-9156.660337050002,3610.8349097770347,-2588.488470135745,27655.925173273707,8408.636857108695,10145.456808263876,10375.76918313136,0.0,0.0,0.0,2019-03-17T21:23:49.445779,9,EyesClosed
-16974.18296029365,-9277.851495486677,3603.9058689958897,-2481.5130211726455,27575.145968812227,8857.549292749083,10061.257786900735,10432.810834981303,0.0,0.0,0.0,2019-03-17T21:23:49.452422,9,EyesClosed
-17104.314816512444,-9416.00762796493,3454.8197334789916,-2639.741020171764,27426.19394376206,8846.060496099055,9918.273677620135,10287.882123933092,0.0,0.0,0.0,2019-03-17T21:23:49.452892,9,EyesClosed
-16989.493905245534,-9294.056510216775,3451.0199369215893,-2760.2392745303246,27498.881816730718,8405.976999518514,9991.632102922453,10221.519794645286,0.0,0.0,0.0,2019-03-17T21:23:49.459458,9,EyesClosed
-16854.24349954647,-9152.815837003689,3588.3267031105406,-2631.582633445577,27645.24103942407,8349.292975579856,10125.072017320635,10346.33193568372,0.0,0.0,0.0,2019-03-17T21:23:49.467317,9,EyesClosed
-16938.844852309805,-9241.865186913632,3615.640534834926,-2488.9561520762627,27601.342213313845,8790.136431471878,10078.468630131321,10441.192739152044,0.0,0.0,0.0,2019-03-17T21:23:49.467663,9,EyesClosed
-17100.224447277124,-9408.497441827947,3474.0198819661,-2604.6711331213874,27442.510717214434,8892.95445596629,9925.716808523752,10322.259106905354,0.0,0.0,0.0,2019-03-17T21:23:49.474482,9,EyesClosed
-17031.93986796616,-9344.482045707948,3430.1434076003325,-2757.9146931069727,27470.226880339014,8467.265482814966,9957.59039611702,10219.239916710845,0.0,0.0,0.0,2019-03-17T21:23:49.474921,9,EyesClosed
-16868.77213344242,-9173.62531109158,3571.831115702524,-2654.649633723454,27634.98158871908,8305.416501214087,10112.62209565903,10324.695447050983,0.0,0.0,0.0,2019-03-17T21:23:49.482041,9,EyesClosed
-16922.55043060189,-9233.773855420812,3626.995221018222,-2491.3701404774356,27624.09628916935,8704.305732763498,10096.461784417843,10435.44834082703,0.042,1.016,0.228,2019-03-17T21:23:49.482371,9,EyesClosed
-17097.76575538704,-9415.694703542555,3493.376492664396,-2570.5400193381333,27455.51943248742,8912.646342831415,9935.372762128445,10339.67111583604,0.0,0.0,0.0,2019-03-17T21:23:49.490042,9,EyesClosed
-17068.149693983756,-9380.736575214456,3418.900480139313,-2749.8904168475174,27442.466013725523,8540.109817994811,9925.292125379101,10212.869669541082,0.0,0.0,0.0,2019-03-17T21:23:49.490471,9,EyesClosed
-16899.95281695757,-9204.582477162181,3536.113028062943,-2700.7836342792075,27601.431620291667,8271.665367086574,10077.70867081984,10284.350548309154,0.0,0.0,0.0,2019-03-17T21:23:49.498061,9,EyesClosed
-16905.49604958249,-9212.606753421636,3627.598718118515,-2519.5780419800335,27636.389748619767,8606.1815746047,10103.547287410174,10416.427006295564,0.0,0.0,0.0,2019-03-17T21:23:49.498473,9,EyesClosed
-17073.894092308772,-9389.677272996578,3523.439588956784,-2545.5507690371,27484.219072368036,8912.109900964488,9951.77894255864,10359.497113167896,0.0,0.0,0.0,2019-03-17T21:23:49.506096,9,EyesClosed
-17093.027185562514,-9409.302104628337,3412.329067269453,-2735.5405969072103,27422.43885069357,8612.082435140901,9895.743119209184,10210.92506777347,0.0,0.0,0.0,2019-03-17T21:23:49.506566,9,EyesClosed
-16925.791433547907,-9230.979887363897,3499.12089098941,-2733.417181183956,27567.859300119795,8263.395221638111,10039.46483605681,10245.056181556723,0.0,0.0,0.0,2019-03-17T21:23:49.512692,9,EyesClosed
-16883.97131967203,-9193.29484621225,3615.0817412235433,-2548.8588272164857,27643.51995510101,8518.674495062172,10107.81647060114,10393.62822695115,0.0,0.0,0.0,2019-03-17T21:23:49.513094,9,EyesClosed
-17048.033123973983,-9369.04661286433,3536.8729873744237,-2531.3127078190696,27504.961491222562,8890.920447220857,9971.180256745847,10371.835276107226,0.0,0.0,0.0,2019-03-17T21:23:49.519759,9,EyesClosed
-17112.763775916552,-9435.76657006342,3408.3951602453185,-2716.4969106312888,27408.33489994227,8687.988959311124,9887.025938871615,10218.949344032926,0.044,1.01,0.234,2019-03-17T21:23:49.527616,9,EyesClosed
-16958.06735254137,-9266.02742266982,3470.801230764536,-2758.2723210182576,27539.941971295117,8287.378643438655,10019.4153212804,10226.660695870007,0.0,0.0,0.0,2019-03-17T21:23:49.527994,9,EyesClosed
-16876.550540512864,-9182.521305384793,3613.4500638783056,-2576.7314525522534,27652.438301138678,8442.902081358681,10123.19447078639,10381.111250056178,0.0,0.0,0.0,2019-03-17T21:23:49.534246,9,EyesClosed
-17016.248943358536,-9330.087522278729,3579.140136139409,-2506.3234575180363,27540.679578862142,8867.89815043189,10012.106300843514,10401.585447977239,0.0,0.0,0.0,2019-03-17T21:23:49.534717,9,EyesClosed
-17112.47320323863,-9436.370067163714,3438.5700152599834,-2677.67193051242,27412.62643487769,8765.482457337674,9887.808249927552,10246.441989712954,0.0,0.0,0.0,2019-03-17T21:23:49.542278,9,EyesClosed
-16981.98371910855,-9291.664873560057,3454.395050334341,-2769.0905653346263,27503.62038655524,8325.980106112971,9975.695309125818,10204.39835839252,0.0,0.0,0.0,2019-03-17T21:23:49.542624,9,EyesClosed
-16869.845017176274,-9172.060688979709,3602.050674206099,-2606.3475139555353,27642.916458000716,8373.254045635944,10101.960313553847,10348.589461873706,0.0,0.0,0.0,2019-03-17T21:23:49.550328,9,EyesClosed
-16979.74854466302,-9293.073033460741,3602.8106335175794,-2488.7996898650754,27568.485148964544,8822.814681865535,10025.405588794421,10410.727311459459,0.0,0.0,0.0,2019-03-17T21:23:49.550746,9,EyesClosed
-17107.801688647472,-9428.211680437527,3455.8702654683907,-2632.1190753125043,27418.66140588062,8839.198510551276,9882.890866147383,10272.995862125857,0.0,0.0,0.0,2019-03-17T21:23:49.556947,9,EyesClosed
-17008.55994326591,-9317.682304106034,3436.893634425835,-2761.423916986456,27479.838130454795,8397.908019770148,9943.486445365721,10196.597599577619,0.0,0.0,0.0,2019-03-17T21:23:49.557319,9,EyesClosed
-16863.81004617334,-9157.017964961287,3582.2693803631523,-2630.3085840116246,27638.04377770946,8326.494196235442,10092.974912282814,10325.120130195633,0.036000000000000004,1.01,0.23600000000000002,2019-03-17T21:23:49.565040,9,EyesClosed
-16943.762236089973,-9236.947803133466,3618.278040680652,-2481.9600560617514,27604.024422648483,8761.727364269182,10057.972080465805,10423.244288354432,0.0,0.0,0.0,2019-03-17T21:23:49.565434,9,EyesClosed
-17100.224447277124,-9403.870630725698,3477.6855680567705,-2593.1823364713596,27443.740063159476,8887.590037297015,9903.700340235275,10307.104624164656,0.0,0.0,0.0,2019-03-17T21:23:49.573040,9,EyesClosed
-17041.55111808194,-9336.569528170769,3424.0190296195783,-2757.445306473411,27460.705037201053,8467.1984275816,9922.051122433082,10193.758928031793,0.0,0.0,0.0,2019-03-17T21:23:49.573399,9,EyesClosed
-16870.917900910128,-9159.499008595825,3562.0410516310994,-2665.087898384082,27629.013672949517,8286.037538771336,10080.033252243193,10296.80046997076,0.0,0.0,0.0,2019-03-17T21:23:49.580216,9,EyesClosed
-16911.6427793077,-9207.331741730182,3628.67160185237,-2496.1310620464164,27628.633693293774,8672.76742133706,10077.306339419645,10414.907087672602,0.0,0.0,0.0,2019-03-17T21:23:49.580611,9,EyesClosed
-17083.23712149109,-9390.437232308059,3502.339542190974,-2562.716908778776,27463.81192968034,8900.263476403175,9921.894660221895,10325.969496484935,0.0,0.0,0.0,2019-03-17T21:23:49.586712,9,EyesClosed
-17062.829978803395,-9368.197246575028,3417.648782449816,-2740.234463242825,27440.320246257812,8540.512149395008,9906.851936203473,10195.032977465748,0.0,0.0,0.0,2019-03-17T21:23:49.594534,9,EyesClosed
-16898.835229734806,-9188.936256043466,3528.1558070368537,-2698.995494722783,27597.922396412185,8254.610986067175,10059.000260710747,10258.243710785355,0.0,0.0,0.0,2019-03-17T21:23:49.595037,9,EyesClosed
-16895.549523299876,-9187.8186688207,3628.67160185237,-2513.207794810271,27644.101100456846,8577.325472512897,10098.696958863373,10399.909067143091,0.0,0.0,0.0,2019-03-17T21:23:49.602557,9,EyesClosed
-17063.299365436957,-9368.309005297304,3534.570757695527,-2528.4069810398796,27496.736049263007,8904.555011338594,9957.25511995019,10356.546682899796,0.038,1.008,0.24,2019-03-17T21:23:49.602892,9,EyesClosed
-17095.82115361943,-9398.19328763405,3422.2979452965196,-2717.2345181983137,27430.10549904174,8624.979391691613,9898.715901221742,10210.299218928722,0.0,0.0,0.0,2019-03-17T21:23:49.609795,9,EyesClosed
-16935.335628430323,-9225.526061716802,3506.1393387483763,-2727.4939689032994,27569.78155014295,8258.187265180024,10034.815673210105,10237.098960530635,0.0,0.0,0.0,2019-03-17T21:23:49.610213,9,EyesClosed
-16884.82068596133,-9171.948930257431,3634.6842211108474,-2534.8889869319187,27657.065112240925,8499.362587852787,10109.984589813303,10392.980026361945,0.0,0.0,0.0,2019-03-17T21:23:49.617249,9,EyesClosed
-17053.53165310999,-9352.059287078297,3559.962339396756,-2507.9104313743633,27518.149020451194,8886.673615774347,9975.78471610364,10380.127773300144,0.0,0.0,0.0,2019-03-17T21:23:49.617541,9,EyesClosed
-17128.566459246453,-9430.804482794343,3424.2648988085866,-2691.6641225414423,27409.5195423984,8700.662398417282,9877.459392244744,10224.537280146753,0.0,0.0,0.0,2019-03-17T21:23:49.625273,9,EyesClosed
-16971.433695725646,-9260.595948767179,3481.4630128697177,-2737.708716119375,27532.856468302783,8289.725576606463,9999.276399526168,10217.630591110063,0.0,0.0,0.0,2019-03-17T21:23:49.625727,9,EyesClosed
-16887.25702610696,-9170.697232567934,3619.1050552254983,-2565.846153002519,27643.743472545564,8417.152871746168,10100.105118764057,10362.983985302924,0.0,0.0,0.0,2019-03-17T21:23:49.633269,9,EyesClosed
-17020.249905616034,-9310.038007502319,3593.825232246546,-2482.2059252507597,27547.36275045428,8851.223749068231,10000.773966404673,10400.892543899125,0.0,0.0,0.0,2019-03-17T21:23:49.633654,9,EyesClosed
-17130.600467991884,-9428.345790904259,3448.516541542595,-2654.4931715122666,27410.123039498692,8768.365832372408,9870.060964830038,10247.134893791068,0.0,0.0,0.0,2019-03-17T21:23:49.639866,9,EyesClosed
-17011.488021789555,-9303.377187654638,3452.4951520556397,-2768.598826956609,27487.236557869503,8313.753701895917,9946.883910522927,10185.533486072241,0.038,1.006,0.234,2019-03-17T21:23:49.640162,9,EyesClosed
-16881.177351615115,-9168.14913370003,3600.1731276718533,-2614.595307659544,27631.584123561875,8334.69728645054,10081.754336566251,10325.969496484935,0.0,0.0,0.0,2019-03-17T21:23:49.646972,9,EyesClosed
-16993.65132971422,-9286.948655479986,3606.2528021636967,-2491.6830648998102,27567.211099530592,8783.252094179643,10018.968286391293,10400.803136921304,0.0,0.0,0.0,2019-03-17T21:23:49.654835,9,EyesClosed
-17134.042636638,-9435.744218318965,3467.381413862874,-2619.780912373175,27421.18715300407,8830.436626724795,9884.81311617054,10276.438030771975,0.0,0.0,0.0,2019-03-17T21:23:49.655179,9,EyesClosed
-17041.75228378204,-9330.713371123478,3443.9791374181677,-2752.8408471156176,27472.596165251278,8392.677711567607,9938.859634263472,10193.82598326516,0.0,0.0,0.0,2019-03-17T21:23:49.662902,9,EyesClosed
-16892.643796520686,-9175.078174481176,3587.3655780989625,-2632.096723568049,27629.46070783862,8295.82760284276,10086.872886046516,10312.938429467491,0.0,0.0,0.0,2019-03-17T21:23:49.663249,9,EyesClosed
-16965.3540212338,-9250.492960273381,3632.3372879430403,-2478.9425705602853,27602.52685576998,8724.779930684559,10058.061487443625,10414.124776616667,0.0,0.0,0.0,2019-03-17T21:23:49.670100,9,EyesClosed
-17127.404168534777,-9426.267078669916,3501.8254520685023,-2573.1551734394043,27445.43879573808,8882.113859905465,9905.86845944744,10309.89859222157,0.0,0.0,0.0,2019-03-17T21:23:49.670488,9,EyesClosed
-17078.498551666566,-9374.969825144986,3440.000526905123,-2739.7427248648078,27451.563173718834,8472.831067184337,9914.987971185205,10193.043672209224,0.0,0.0,0.0,2019-03-17T21:23:49.678096,9,EyesClosed
-16918.527116599933,-9200.581514904681,3568.2995400785853,-2660.6622529819315,27609.545303528943,8267.150314706601,10064.454086357842,10284.819934942716,0.0,0.0,0.0,2019-03-17T21:23:49.678540,9,EyesClosed
-16952.54647166091,-9234.10913158764,3634.14777924392,-2495.1922887792934,27614.2168181201,8641.810255266459,10064.051754957647,10403.15007008911,0.042,1.01,0.234,2019-03-17T21:23:49.685530,9,EyesClosed
-17101.833772877904,-9392.694758498044,3526.9041093473566,-2536.3194985770583,27467.276450070913,8907.863069517978,9924.353352111979,10338.66528733555,0.0,0.0,0.0,2019-03-17T21:23:49.685934,9,EyesClosed
-17107.15348805827,-9395.421671321592,3426.097741853922,-2726.6222508695428,27422.952940816038,8554.750210613038,9888.47880226121,10192.909561742492,0.0,0.0,0.0,2019-03-17T21:23:49.692195,9,EyesClosed
-16933.25691619598,-9214.126672044596,3534.7272199067143,-2690.166555662937,27584.868977650283,8256.242663412413,10043.443446569854,10255.159170050523,0.0,0.0,0.0,2019-03-17T21:23:49.692653,9,EyesClosed
-16914.660264809165,-9200.782680604778,3641.009764791699,-2506.0552365845724,27641.70946380013,8562.88624559477,10090.560923881641,10398.880886898147,0.0,0.0,0.0,2019-03-17T21:23:49.700125,9,EyesClosed
-17081.113705767835,-9370.544179742836,3546.9759758682226,-2516.3370390340137,27493.048011427883,8897.357749623985,9943.44174187681,10353.305679953775,0.0,0.0,0.0,2019-03-17T21:23:49.700590,9,EyesClosed
-17116.362406773856,-9396.38279633317,3434.0549628800113,-2701.521241846233,27419.95780705903,8636.155263919267,9879.67221494582,10205.962980504391,0.0,0.0,0.0,2019-03-17T21:23:49.707247,9,EyesClosed
-16955.58630890683,-9232.723323431412,3509.4921004166727,-2719.067361243649,27559.343285482322,8261.741192548418,10017.001332879227,10224.939611546948,0.0,0.0,0.0,2019-03-17T21:23:49.715131,9,EyesClosed
-16899.72929951302,-9179.839096050155,3638.372258945973,-2529.1222368624494,27653.399426150256,8476.541456763918,10103.077900776614,10378.00435757689,0.0,0.0,0.0,2019-03-17T21:23:49.715422,9,EyesClosed
-17056.884414778284,-9347.588938187235,3579.453060561784,-2489.87257359893,27526.150944966193,8872.927292934333,9978.22105624927,10377.95965408798,0.0,0.0,0.0,2019-03-17T21:23:49.722286,9,EyesClosed
-17137.462453539665,-9431.29622117236,3443.018012406589,-2673.134526387993,27414.325167456293,8707.636142687339,9874.62072069892,10221.922126045481,0.04,1.016,0.23800000000000002,2019-03-17T21:23:49.722675,9,EyesClosed
-16992.84666691383,-9276.130411163618,3482.088861714466,-2740.5250359207434,27526.039186243917,8277.163896222579,9984.88187609695,10198.25162866731,0.0,0.0,0.0,2019-03-17T21:23:49.729706,9,EyesClosed
-16894.476639566023,-9173.58060760267,3625.028267506155,-2564.9073797353963,27651.320713915913,8388.341473143277,10102.452051931865,10349.058848507268,0.0,0.0,0.0,2019-03-17T21:23:49.730046,9,EyesClosed
-17037.3713418688,-9326.108911765685,3593.7134735242694,-2483.2564572401593,27549.06148303288,8822.546460932072,10002.852678639018,10384.419308235563,0.0,0.0,0.0,2019-03-17T21:23:49.737830,9,EyesClosed
-17157.087285171423,-9452.999765038463,3444.6943932407376,-2651.4309825218897,27408.625472620188,8766.82356200499,9867.803438640052,10234.2155854959,0.0,0.0,0.0,2019-03-17T21:23:49.738239,9,EyesClosed
-17044.076865205392,-9326.51124316588,3447.242492108642,-2762.765021653774,27484.15201713467,8319.74396940994,9945.609861088975,10175.095221411613,0.0,0.0,0.0,2019-03-17T21:23:49.745025,9,EyesClosed
-16914.436747364613,-9187.930427542977,3597.245049148208,-2610.3708279574907,27633.260504396025,8320.593335699241,10085.196505212369,10316.984095213902,0.0,0.0,0.0,2019-03-17T21:23:49.745433,9,EyesClosed
-17009.722233977584,-9294.03415847232,3613.248898178208,-2480.3507304609693,27575.525948467966,8765.236588148664,10023.706856215818,10394.499944984907,0.0,0.0,0.0,2019-03-17T21:23:49.752442,9,EyesClosed
-17155.522663059553,-9449.781113836898,3464.3192248724968,-2613.678886136876,27416.627397135187,8825.832167367002,9869.658633429843,10258.735449163372,0.0,0.0,0.0,2019-03-17T21:23:49.752820,9,EyesClosed
-17072.351821941356,-9356.104952824708,3432.9820791461566,-2755.612463428076,27458.5816214778,8393.817650534827,9914.92091595184,10167.003889918791,0.0,0.0,0.0,2019-03-17T21:23:49.760489,9,EyesClosed
-16919.354131144777,-9192.333721200672,3576.055595404577,-2642.8926161399622,27619.31301585591,8275.241646199423,10066.309281147633,10283.791754697771,0.04,1.006,0.23800000000000002,2019-03-17T21:23:49.760860,9,EyesClosed
-16977.982756851048,-9258.181960366006,3627.285793696141,-2484.888134585397,27598.771762701486,8696.169697781766,10043.84577797005,10390.767203660871,0.0,0.0,0.0,2019-03-17T21:23:49.767552,9,EyesClosed
-17137.305991328478,-9427.921107759608,3496.058701999033,-2578.5419438531335,27437.41451947862,8868.948682421289,9888.232933072202,10286.004577398846,0.0,0.0,0.0,2019-03-17T21:23:49.774455,9,EyesClosed
-17107.846392136384,-9389.833735207765,3421.515634240584,-2758.4064314849893,27431.603065920244,8465.2985293029,9888.05411911656,10155.738610713317,0.0,0.0,0.0,2019-03-17T21:23:49.774889,9,EyesClosed
-16943.583422134332,-9212.182070276986,3549.9711096252336,-2684.2433433822803,27595.821332433385,8239.165930648558,10044.963365192814,10241.479902443874,0.0,0.0,0.0,2019-03-17T21:23:49.782017,9,EyesClosed
-16953.105265272294,-9225.123730316607,3637.5899478900374,-2502.0542743270726,27619.73769900056,8607.65678973875,10062.71065029033,10374.919816842059,0.0,0.0,0.0,2019-03-17T21:23:49.782365,9,EyesClosed
-17115.669502695742,-9397.947418445041,3529.1169320484323,-2545.0143271701727,27464.504833758456,8882.985577939222,9909.86942170494,10309.809185243748,0.0,0.0,0.0,2019-03-17T21:23:49.790042,9,EyesClosed
